Wavelength (nm)	B02 abs e
220.00	16263
220.25	15634
220.50	15330
220.75	14969
221.00	14468
221.25	14034
221.50	13687
221.75	13507
222.00	12976
222.25	12629
222.50	12379
222.75	11956
223.00	11663
223.25	11319
223.50	10996
223.75	10604
224.00	10236
224.25	10064
224.50	9655.5
224.75	9417.2
225.00	9155.8
225.25	8727.1
225.50	8454.3
225.75	8144.7
226.00	7888.6
226.25	7685.7
226.50	7433.5
226.75	7160.2
227.00	6991.6
227.25	6659.3
227.50	6441.3
227.75	6279.0
228.00	6088.9
228.25	5838.2
228.50	5621.7
228.75	5371.3
229.00	5243.7
229.25	5040.3
229.50	4936.0
229.75	4771.6
230.00	4698.0
230.25	4577.9
230.50	4484.6
230.75	4394.6
231.00	4196.2
231.25	4158.6
231.50	4160.8
231.75	4077.0
232.00	4044.5
232.25	3981.5
232.50	3899.5
232.75	3883.6
233.00	3958.5
233.25	3872.9
233.50	3862.4
233.75	3907.5
234.00	3848.1
234.25	3917.0
234.50	3924.9
234.75	3935.5
235.00	3978.8
235.25	3992.4
235.50	4076.7
235.75	4139.7
236.00	4197.6
236.25	4230.2
236.50	4364.0
236.75	4433.5
237.00	4501.2
237.25	4555.8
237.50	4679.2
237.75	4741.6
238.00	4893.5
238.25	4983.5
238.50	5100.4
238.75	5142.8
239.00	5238.2
239.25	5420.2
239.50	5538.2
239.75	5649.1
240.00	5804.9
240.25	5938.7
240.50	6092.1
240.75	6221.4
241.00	6330.2
241.25	6493.5
241.50	6617.8
241.75	6781.3
242.00	6912.1
242.25	7140.2
242.50	7288.9
242.75	7492.9
243.00	7674.7
243.25	7815.9
243.50	8030.3
243.75	8177.5
244.00	8335.4
244.25	8568.6
244.50	8674.1
244.75	8911.2
245.00	9131.0
245.25	9261.5
245.50	9608.1
245.75	9752.6
246.00	9911.1
246.25	10198
246.50	10460
246.75	10583
247.00	10808
247.25	11036
247.50	11249
247.75	11520
248.00	11750
248.25	12014
248.50	12227
248.75	12453
249.00	12724
249.25	13006
249.50	13206
249.75	13514
250.00	13728
250.25	13959
250.50	14252
250.75	14471
251.00	14816
251.25	14970
251.50	15310
251.75	15643
252.00	15886
252.25	16131
252.50	16399
252.75	16651
253.00	16945
253.25	17287
253.50	17495
253.75	17739
254.00	18061
254.25	18242
254.50	18390
254.75	18585
255.00	18848
255.25	19243
255.50	19421
255.75	19709
256.00	19983
256.25	20344
256.50	20623
256.75	20857
257.00	21177
257.25	21423
257.50	21676
257.75	22031
258.00	22319
258.25	22578
258.50	22841
258.75	23147
259.00	23477
259.25	23759
259.50	23923
259.75	24253
260.00	24540
260.25	24867
260.50	25146
260.75	25295
261.00	25558
261.25	25888
261.50	26224
261.75	26385
262.00	26610
262.25	26914
262.50	27218
262.75	27417
263.00	27688
263.25	27962
263.50	28197
263.75	28388
264.00	28581
264.25	28779
264.50	29023
264.75	29342
265.00	29452
265.25	29621
265.50	29833
265.75	30050
266.00	30293
266.25	30404
266.50	30593
266.75	30797
267.00	30944
267.25	31088
267.50	31289
267.75	31525
268.00	31662
268.25	31742
268.50	31906
268.75	32061
269.00	32060
269.25	32314
269.50	32544
269.75	32600
270.00	32647
270.25	32808
270.50	32902
270.75	32972
271.00	33090
271.25	33101
271.50	33134
271.75	33373
272.00	33350
272.25	33296
272.50	33439
272.75	33445
273.00	33500
273.25	33589
273.50	33575
273.75	33588
274.00	33595
274.25	33694
274.50	33700
274.75	33746
275.00	33724
275.25	33710
275.50	33754
275.75	33730
276.00	33760
276.25	33800
276.50	33702
276.75	33677
277.00	33636
277.25	33687
277.50	33528
277.75	33612
278.00	33557
278.25	33441
278.50	33266
278.75	33301
279.00	33207
279.25	33084
279.50	33001
279.75	33068
280.00	32889
280.25	32850
280.50	32706
280.75	32504
281.00	32531
281.25	32377
281.50	32285
281.75	32158
282.00	31937
282.25	31861
282.50	31579
282.75	31514
283.00	31348
283.25	31222
283.50	31045
283.75	30946
284.00	30716
284.25	30481
284.50	30321
284.75	30142
285.00	29970
285.25	29741
285.50	29547
285.75	29312
286.00	29146
286.25	28831
286.50	28611
286.75	28382
287.00	28047
287.25	28002
287.50	27622
287.75	27266
288.00	27129
288.25	26802
288.50	26513
288.75	26391
289.00	26076
289.25	25798
289.50	25453
289.75	25199
290.00	24960
290.25	24573
290.50	24301
290.75	24065
291.00	23741
291.25	23458
291.50	23074
291.75	22839
292.00	22500
292.25	22178
292.50	21851
292.75	21520
293.00	21240
293.25	20964
293.50	20686
293.75	20400
294.00	20147
294.25	19836
294.50	19713
294.75	19438
295.00	19052
295.25	18792
295.50	18342
295.75	18049
296.00	17704
296.25	17422
296.50	17097
296.75	16784
297.00	16461
297.25	16168
297.50	15796
297.75	15487
298.00	15182
298.25	14847
298.50	14506
298.75	14170
299.00	13868
299.25	13539
299.50	13183
299.75	12984
300.00	12662
300.25	12309
300.50	12000
300.75	11738
301.00	11468
301.25	11217
301.50	10829
301.75	10588
302.00	10379
302.25	9992.9
302.50	9740.4
302.75	9505.7
303.00	9206.8
303.25	9005.5
303.50	8739.6
303.75	8461.4
304.00	8239.6
304.25	8000.1
304.50	7781.3
304.75	7547.8
305.00	7326.8
305.25	7014.5
305.50	6876.8
305.75	6656.5
306.00	6433.7
306.25	6175.5
306.50	6042.6
306.75	5765.7
307.00	5705.5
307.25	5473.5
307.50	5357.9
307.75	5066.4
308.00	4926.0
308.25	4722.9
308.50	4578.7
308.75	4470.0
309.00	4215.1
309.25	4067.9
309.50	4022.5
309.75	3751.6
310.00	3989.2
310.25	3685.8
310.50	3866.3
310.75	3524.5
311.00	3214.0
311.25	3186.7
311.50	3193.1
311.75	3228.1
312.00	2942.0
312.25	2697.8
312.50	2804.5
312.75	2405.8
313.00	2762.6
313.25	2658.2
313.50	2503.6
313.75	2113.0
314.00	1771.8
314.25	1864.2
314.50	2090.0
314.75	1764.3
315.00	1877.5
315.25	1870.8
315.50	1412.7
315.75	1447.6
316.00	1519.8
316.25	1509.6
316.50	1202.9
316.75	1325.7
317.00	1310.0
317.25	910.20
317.50	1189.2
317.75	1123.0
318.00	952.34
318.25	976.90
318.50	766.94
318.75	876.92
319.00	877.97
319.25	763.25
319.50	859.84
319.75	669.52
320.00	663.73
320.25	549.01
320.50	796.19
320.75	671.05
321.00	680.73
321.25	528.21
321.50	492.36
321.75	544.60
322.00	486.72
322.25	435.99
322.50	498.95
322.75	418.45
323.00	464.44
323.25	519.07
323.50	294.23
323.75	431.88
324.00	379.66
324.25	393.81
324.50	316.59
324.75	179.25
325.00	328.81
325.25	273.61
325.50	373.47
325.75	366.19
326.00	338.07
326.25	350.14
326.50	192.56
326.75	297.18
327.00	318.17
327.25	202.86
327.50	405.99
327.75	236.21
328.00	270.30
328.25	35.932
328.50	216.45
328.75	234.17
329.00	277.48
329.25	202.34
329.50	119.17
329.75	248.19
330.00	134.66
330.25	200.59
330.50	214.15
330.75	287.82
331.00	157.92
331.25	304.50
331.50	246.33
331.75	265.24
332.00	244.56
332.25	188.47
332.50	35.951
332.75	44.443
333.00	76.745
333.25	143.87
333.50	-32.461
333.75	199.24
334.00	169.34
334.25	78.134
334.50	89.007
334.75	82.618
335.00	212.54
335.25	252.28
335.50	124.17
335.75	92.181
336.00	209.01
336.25	69.582
336.50	164.68
336.75	146.69
337.00	85.237
337.25	199.38
337.50	-3.7314
337.75	100.59
338.00	79.622
338.25	213.41
338.50	44.522
338.75	129.80
339.00	152.88
339.25	243.21
339.50	133.25
339.75	233.71
340.00	79.701
340.25	148.91
340.50	87.161
340.75	197.14
341.00	74.979
341.25	40.911
341.50	-11.609
341.75	218.61
342.00	207.76
342.25	24.284
342.50	186.94
342.75	20.137
343.00	5.1176
343.25	108.55
343.50	-62.124
343.75	-12.561
344.00	196.23
344.25	131.80
344.50	128.69
344.75	-0.31902
345.00	156.98
345.25	171.72
345.50	46.586
345.75	166.98
346.00	162.68
346.25	189.03
346.50	182.93
346.75	152.14
347.00	119.56
347.25	81.923
347.50	95.474
347.75	120.63
348.00	151.74
348.25	115.59
348.50	203.85
348.75	43.292
349.00	174.11
349.25	122.48
349.50	77.399
349.75	181.72
350.00	101.53
350.25	96.923
350.50	308.99
350.75	102.30
351.00	86.387
351.25	115.41
351.50	159.03
351.75	89.542
352.00	0.41484
352.25	226.47
352.50	204.90
352.75	66.069
353.00	190.93
353.25	95.851
353.50	167.74
353.75	147.36
354.00	148.41
354.25	159.28
354.50	158.55
354.75	197.99
355.00	112.14
355.25	66.764
355.50	15.137
355.75	157.85
356.00	198.49
356.25	78.411
356.50	99.105
356.75	229.92
357.00	146.45
357.25	12.081
357.50	123.25
357.75	-7.5417
358.00	87.260
358.25	162.42
358.50	195.32
358.75	195.47
359.00	203.07
359.25	110.08
359.50	136.13
359.75	82.121
360.00	86.446
360.25	94.938
360.50	81.704
360.75	46.149
361.00	126.96
361.25	-8.8911
361.50	106.74
361.75	8.9858
362.00	157.66
362.25	66.148
362.50	112.44
362.75	49.204
363.00	144.01
363.25	133.75
363.50	74.978
363.75	142.10
364.00	180.65
364.25	154.32
364.50	82.458
364.75	42.140
365.00	113.13
365.25	-27.185
365.50	46.783
365.75	6.1682
366.00	60.791
366.25	75.533
366.50	188.49
366.75	116.33
367.00	109.64
367.25	75.870
367.50	25.136
367.75	-0.89531
368.00	149.86
368.25	50.017
368.50	116.25
368.75	66.406
369.00	96.327
369.25	42.021
369.50	94.263
369.75	109.30
370.00	157.68
370.25	4.2633
370.50	106.21
370.75	67.974
371.00	182.42
371.25	62.339
371.50	135.41
371.75	96.585
372.00	102.10
372.25	46.307
372.50	57.180
372.75	-7.5423
373.00	-65.717
373.25	59.144
373.50	50.374
373.75	54.700
374.00	32.239
374.25	21.684
374.50	104.88
374.75	-22.939
375.00	87.338
375.25	69.640
375.50	59.680
375.75	29.779
376.00	183.81
376.25	57.477
376.50	138.59
376.75	144.40
377.00	-6.3322
377.25	109.90
377.50	68.688
377.75	-2.2846
378.00	138.35
378.25	43.568
378.50	97.596
378.75	110.85
379.00	47.021
379.25	59.084
379.50	121.74
379.75	44.818
380.00	126.82
380.25	63.588
380.50	75.949
380.75	11.822
381.00	60.493
381.25	39.818
381.50	114.38
381.75	32.695
382.00	101.31
382.25	83.013
382.50	-3.1380
382.75	166.07
383.00	-50.439
383.25	75.017
383.50	-19.467
383.75	-3.2372
384.00	80.552
384.25	86.366
384.50	66.286
384.75	14.957
385.00	-68.217
385.25	59.917
385.50	74.362
385.75	60.830
386.00	22.596
386.25	20.374
386.50	115.77
386.75	105.81
387.00	29.778
387.25	77.259
387.50	110.75
387.75	44.243
388.00	37.259
388.25	67.774
388.50	64.659
388.75	106.19
389.00	39.977
389.25	51.445
389.50	102.79
389.75	-2.7018
390.00	1.9213
390.25	49.997
390.50	4.6196
390.75	90.195
391.00	-1.9081
391.25	74.739
391.50	88.588
391.75	39.044
392.00	51.405
392.25	79.838
392.50	130.59
392.75	61.108
393.00	24.957
393.25	25.711
393.50	-28.595
393.75	59.064
394.00	68.449
394.25	-1.3329
394.50	47.635
394.75	12.377
395.00	42.893
395.25	101.98
395.50	35.175
395.75	12.119
396.00	-21.948
396.25	57.377
396.50	38.191
396.75	29.123
397.00	34.639
397.25	-14.012
397.50	59.064
397.75	-4.4680
398.00	167.71
398.25	67.278
398.50	117.14
398.75	84.857
399.00	22.814
399.25	-18.099
399.50	57.953
399.75	42.635
400.00	26.425
