Wavelength (nm)	B02 ems
300.00	0.011362
300.50	0.012269
301.00	0.013524
301.50	0.014249
302.00	0.015235
302.50	0.016768
303.00	0.018096
303.50	0.019623
304.00	0.021136
304.50	0.023044
305.00	0.025257
305.50	0.027033
306.00	0.030931
306.50	0.034322
307.00	0.040020
307.50	0.043998
308.00	0.051391
308.50	0.057994
309.00	0.067668
309.50	0.074153
310.00	0.086219
310.50	0.098326
311.00	0.11601
311.50	0.12911
312.00	0.15042
312.50	0.17015
313.00	0.19771
313.50	0.21860
314.00	0.25165
314.50	0.28001
315.00	0.32033
315.50	0.34806
316.00	0.39244
316.50	0.43528
317.00	0.48362
317.50	0.51530
318.00	0.56112
318.50	0.59683
319.00	0.64083
319.50	0.66894
320.00	0.70356
320.50	0.73418
321.00	0.76538
321.50	0.78377
322.00	0.80471
322.50	0.81630
323.00	0.82267
323.50	0.82260
324.00	0.81844
324.50	0.81171
325.00	0.79926
325.50	0.79303
326.00	0.77887
326.50	0.76778
327.00	0.76073
327.50	0.75495
328.00	0.74959
328.50	0.74882
329.00	0.75139
329.50	0.75598
330.00	0.76533
330.50	0.77651
331.00	0.79604
331.50	0.81158
332.00	0.83447
332.50	0.85539
333.00	0.87889
333.50	0.89723
334.00	0.91956
334.50	0.93846
335.00	0.95992
335.50	0.97141
336.00	0.98584
336.50	0.99382
337.00	0.99778
337.50	1.0000
338.00	0.99805
338.50	0.99262
339.00	0.98317
339.50	0.97258
340.00	0.95790
340.50	0.93979
341.00	0.92005
341.50	0.90448
342.00	0.88525
342.50	0.86500
343.00	0.84022
343.50	0.82677
344.00	0.80800
344.50	0.79451
345.00	0.77948
345.50	0.76577
346.00	0.75544
346.50	0.74523
347.00	0.73496
347.50	0.73030
348.00	0.72410
348.50	0.72091
349.00	0.71683
349.50	0.71618
350.00	0.71499
350.50	0.71261
351.00	0.71168
351.50	0.70975
352.00	0.70587
352.50	0.70576
353.00	0.70277
353.50	0.69691
354.00	0.69365
354.50	0.68824
355.00	0.67934
355.50	0.67129
356.00	0.65946
356.50	0.64918
357.00	0.63483
357.50	0.62333
358.00	0.61016
358.50	0.59521
359.00	0.57972
359.50	0.56580
360.00	0.54867
360.50	0.53349
361.00	0.51524
361.50	0.50354
362.00	0.48629
362.50	0.47251
363.00	0.45603
363.50	0.44457
364.00	0.42949
364.50	0.41849
365.00	0.40578
365.50	0.39870
366.00	0.38894
366.50	0.38069
367.00	0.37206
367.50	0.36594
368.00	0.35898
368.50	0.35171
369.00	0.34571
369.50	0.34016
370.00	0.33425
370.50	0.32969
371.00	0.32237
371.50	0.31896
372.00	0.31337
372.50	0.30695
373.00	0.30126
373.50	0.29637
374.00	0.29055
374.50	0.28525
375.00	0.27871
375.50	0.27325
376.00	0.26820
376.50	0.26197
377.00	0.25538
377.50	0.25112
378.00	0.24391
378.50	0.23838
379.00	0.23162
379.50	0.22682
380.00	0.21927
380.50	0.21258
381.00	0.20495
381.50	0.19939
382.00	0.19187
382.50	0.18607
383.00	0.17892
383.50	0.17367
384.00	0.16739
384.50	0.16129
385.00	0.15576
385.50	0.15194
386.00	0.14709
386.50	0.14262
387.00	0.13844
387.50	0.13498
388.00	0.13102
388.50	0.12754
389.00	0.12485
389.50	0.12229
390.00	0.11903
390.50	0.11591
391.00	0.11306
391.50	0.11049
392.00	0.10786
392.50	0.10550
393.00	0.10266
393.50	0.10030
394.00	0.097982
394.50	0.095620
395.00	0.092850
395.50	0.091594
396.00	0.089042
396.50	0.086668
397.00	0.083827
397.50	0.082423
398.00	0.080199
398.50	0.078221
399.00	0.075630
399.50	0.074100
400.00	0.071617
400.50	0.069943
401.00	0.067136
401.50	0.065184
402.00	0.063380
402.50	0.061792
403.00	0.059170
403.50	0.057680
404.00	0.055322
404.50	0.053452
405.00	0.051668
405.50	0.050116
406.00	0.048416
406.50	0.046813
407.00	0.044942
407.50	0.043901
408.00	0.042241
408.50	0.040743
409.00	0.039112
409.50	0.038024
410.00	0.036808
410.50	0.035535
411.00	0.034297
411.50	0.033618
412.00	0.031973
412.50	0.031375
413.00	0.030398
413.50	0.029697
414.00	0.028841
414.50	0.027757
415.00	0.027185
415.50	0.026645
416.00	0.025580
416.50	0.024998
417.00	0.024312
417.50	0.023915
418.00	0.023056
418.50	0.022435
419.00	0.021899
419.50	0.021450
420.00	0.020878
420.50	0.020328
421.00	0.019703
421.50	0.019379
422.00	0.018781
422.50	0.018316
423.00	0.017669
423.50	0.017238
424.00	0.016849
424.50	0.016413
425.00	0.015841
425.50	0.015524
426.00	0.015210
426.50	0.014709
427.00	0.014143
427.50	0.014052
428.00	0.013510
428.50	0.013055
429.00	0.012619
429.50	0.012211
430.00	0.011864
430.50	0.011627
431.00	0.011088
431.50	0.010886
432.00	0.010480
432.50	0.010073
433.00	0.0098880
433.50	0.0095995
434.00	0.0092156
434.50	0.0090662
435.00	0.0088283
435.50	0.0085413
436.00	0.0082343
436.50	0.0079956
437.00	0.0077622
437.50	0.0076183
438.00	0.0074297
438.50	0.0071456
439.00	0.0069946
439.50	0.0070209
440.00	0.0067210
440.50	0.0064777
441.00	0.0064008
441.50	0.0061606
442.00	0.0060959
442.50	0.0059088
443.00	0.0057880
443.50	0.0056779
444.00	0.0055710
444.50	0.0054835
445.00	0.0054055
445.50	0.0052176
446.00	0.0050391
446.50	0.0050845
447.00	0.0048873
447.50	0.0048954
448.00	0.0046760
448.50	0.0046576
449.00	0.0044910
449.50	0.0044296
450.00	0.0043127
450.50	0.0041942
451.00	0.0041356
451.50	0.0040328
452.00	0.0040326
452.50	0.0038828
453.00	0.0038369
453.50	0.0037745
454.00	0.0035887
454.50	0.0036127
455.00	0.0034333
455.50	0.0034213
456.00	0.0033475
456.50	0.0033134
457.00	0.0032454
457.50	0.0030852
458.00	0.0031121
458.50	0.0030663
459.00	0.0029533
459.50	0.0029287
460.00	0.0028848
460.50	0.0028500
461.00	0.0027456
461.50	0.0027161
462.00	0.0026813
462.50	0.0025831
463.00	0.0025670
463.50	0.0026027
464.00	0.0024718
464.50	0.0025105
465.00	0.0024321
465.50	0.0024757
466.00	0.0024027
466.50	0.0023668
467.00	0.0022710
467.50	0.0023088
468.00	0.0022652
468.50	0.0022371
469.00	0.0021871
469.50	0.0021997
470.00	0.0021875
470.50	0.0021400
471.00	0.0021370
471.50	0.0021397
472.00	0.0020712
472.50	0.0020142
473.00	0.0020264
473.50	0.0020421
474.00	0.0019613
474.50	0.0019782
475.00	0.0019868
475.50	0.0018818
476.00	0.0018955
476.50	0.0019044
477.00	0.0018810
477.50	0.0018692
478.00	0.0018048
478.50	0.0018338
479.00	0.0018200
479.50	0.0017478
480.00	0.0017827
480.50	0.0016849
481.00	0.0017486
481.50	0.0017105
482.00	0.0017270
482.50	0.0016918
483.00	0.0017037
483.50	0.0016637
484.00	0.0016820
484.50	0.0016810
485.00	0.0016591
485.50	0.0016252
486.00	0.0016326
486.50	0.0015738
487.00	0.0015830
487.50	0.0015762
488.00	0.0015488
488.50	0.0015598
489.00	0.0015854
489.50	0.0015809
490.00	0.0015188
490.50	0.0015527
491.00	0.0015664
491.50	0.0015098
492.00	0.0015220
492.50	0.0014794
493.00	0.0015542
493.50	0.0014578
494.00	0.0014723
494.50	0.0014696
495.00	0.0014196
495.50	0.0014551
496.00	0.0014743
496.50	0.0014950
497.00	0.0014102
497.50	0.0014484
498.00	0.0014266
498.50	0.0013915
499.00	0.0014313
499.50	0.0014044
500.00	0.0014527
