Wavelength (nm)	N11 abs e
220.00	28244
220.25	28760
220.50	28822
220.75	28826
221.00	29075
221.25	28914
221.50	29086
221.75	29225
222.00	29362
222.25	29473
222.50	29742
222.75	29608
223.00	29422
223.25	29306
223.50	29701
223.75	29947
224.00	29896
224.25	30022
224.50	30122
224.75	29903
225.00	30069
225.25	29886
225.50	30185
225.75	29945
226.00	29937
226.25	29858
226.50	30043
226.75	30109
227.00	29847
227.25	29789
227.50	29949
227.75	29401
228.00	29864
228.25	29564
228.50	29490
228.75	29523
229.00	29546
229.25	29206
229.50	29308
229.75	29213
230.00	29200
230.25	29221
230.50	29334
230.75	29203
231.00	29182
231.25	29214
231.50	29129
231.75	28819
232.00	29046
232.25	29205
232.50	29052
232.75	29112
233.00	29070
233.25	29075
233.50	29165
233.75	29100
234.00	29379
234.25	29466
234.50	29407
234.75	29577
235.00	29370
235.25	29381
235.50	29460
235.75	29671
236.00	30085
236.25	30023
236.50	29854
236.75	29848
237.00	29838
237.25	29960
237.50	29732
237.75	29566
238.00	29474
238.25	29432
238.50	29264
238.75	29164
239.00	29028
239.25	28833
239.50	28516
239.75	28267
240.00	28276
240.25	27927
240.50	27565
240.75	27302
241.00	27030
241.25	26558
241.50	26342
241.75	25931
242.00	25769
242.25	25033
242.50	24853
242.75	24461
243.00	24394
243.25	24285
243.50	24353
243.75	24322
244.00	24373
244.25	24364
244.50	24320
244.75	24342
245.00	24479
245.25	24535
245.50	24773
245.75	24742
246.00	24872
246.25	25068
246.50	25043
246.75	25117
247.00	25222
247.25	25234
247.50	25100
247.75	25008
248.00	24872
248.25	24626
248.50	24817
248.75	24920
249.00	25382
249.25	25772
249.50	26442
249.75	26825
250.00	27375
250.25	27516
250.50	27806
250.75	28128
251.00	28234
251.25	28483
251.50	28758
251.75	28893
252.00	29067
252.25	29217
252.50	29181
252.75	29112
253.00	29154
253.25	28805
253.50	28390
253.75	27895
254.00	27581
254.25	27591
254.50	27377
254.75	27542
255.00	27799
255.25	28251
255.50	28386
255.75	28970
256.00	29224
256.25	29802
256.50	29882
256.75	30254
257.00	30571
257.25	30505
257.50	30648
257.75	30636
258.00	31002
258.25	30937
258.50	31044
258.75	31022
259.00	30793
259.25	30763
259.50	30233
259.75	29694
260.00	29071
260.25	28644
260.50	28383
260.75	27921
261.00	27552
261.25	27634
261.50	27464
261.75	27217
262.00	26946
262.25	26725
262.50	26412
262.75	25941
263.00	25651
263.25	25302
263.50	24889
263.75	24414
264.00	23712
264.25	23205
264.50	22955
264.75	22504
265.00	22144
265.25	21810
265.50	21358
265.75	20978
266.00	20602
266.25	20339
266.50	19884
266.75	19480
267.00	19263
267.25	18943
267.50	18641
267.75	18439
268.00	18024
268.25	17840
268.50	17655
268.75	17560
269.00	17273
269.25	17296
269.50	17124
269.75	16981
270.00	16994
270.25	16855
270.50	16855
270.75	16850
271.00	16764
271.25	16767
271.50	16530
271.75	16522
272.00	16558
272.25	16569
272.50	16337
272.75	16468
273.00	16478
273.25	16518
273.50	16662
273.75	16466
274.00	16518
274.25	16406
274.50	16468
274.75	16423
275.00	16382
275.25	16202
275.50	16401
275.75	16278
276.00	16207
276.25	16350
276.50	16254
276.75	16120
277.00	16188
277.25	16035
277.50	16031
277.75	16029
278.00	15914
278.25	15803
278.50	15704
278.75	15468
279.00	15500
279.25	15436
279.50	15287
279.75	15391
280.00	15373
280.25	15265
280.50	15125
280.75	15049
281.00	14912
281.25	14880
281.50	14733
281.75	14739
282.00	14724
282.25	14576
282.50	14589
282.75	14553
283.00	14331
283.25	14220
283.50	14207
283.75	14317
284.00	14157
284.25	14063
284.50	14060
284.75	14029
285.00	13871
285.25	13732
285.50	13677
285.75	13854
286.00	13720
286.25	13721
286.50	13818
286.75	13712
287.00	13776
287.25	13622
287.50	13668
287.75	13638
288.00	13455
288.25	13582
288.50	13644
288.75	13465
289.00	13612
289.25	13539
289.50	13512
289.75	13486
290.00	13764
290.25	13722
290.50	13682
290.75	13671
291.00	13479
291.25	13588
291.50	13829
291.75	13680
292.00	13737
292.25	13782
292.50	13865
292.75	13840
293.00	13908
293.25	13984
293.50	13869
293.75	14065
294.00	14158
294.25	14121
294.50	14211
294.75	14345
295.00	14166
295.25	14361
295.50	14262
295.75	14447
296.00	14435
296.25	14608
296.50	14597
296.75	14630
297.00	14533
297.25	14691
297.50	14892
297.75	14811
298.00	14971
298.25	14933
298.50	15043
298.75	14900
299.00	15063
299.25	15282
299.50	15143
299.75	15231
300.00	15261
300.25	15397
300.50	15516
300.75	15654
301.00	15641
301.25	15607
301.50	15660
301.75	15916
302.00	15913
302.25	16042
302.50	16125
302.75	16123
303.00	16072
303.25	16220
303.50	16058
303.75	16389
304.00	16145
304.25	16518
304.50	16212
304.75	16535
305.00	16340
305.25	16313
305.50	16241
305.75	16204
306.00	16165
306.25	16322
306.50	16367
306.75	16194
307.00	16052
307.25	15995
307.50	15873
307.75	15884
308.00	15743
308.25	15210
308.50	15332
308.75	14951
309.00	14892
309.25	14785
309.50	14504
309.75	14333
310.00	14120
310.25	13708
310.50	13137
310.75	12983
311.00	13503
311.25	12838
311.50	12136
311.75	11963
312.00	11613
312.25	11129
312.50	11804
312.75	11387
313.00	10554
313.25	10408
313.50	10632
313.75	10093
314.00	9779.5
314.25	9532.8
314.50	8934.0
314.75	8332.5
315.00	8073.3
315.25	8410.3
315.50	8097.5
315.75	8076.0
316.00	7529.0
316.25	7173.3
316.50	7212.6
316.75	6799.7
317.00	6841.7
317.25	6879.3
317.50	6949.9
317.75	5871.1
318.00	6525.3
318.25	5766.5
318.50	5233.9
318.75	5676.3
319.00	5772.8
319.25	5535.1
319.50	5561.0
319.75	5282.1
320.00	5710.2
320.25	4441.1
320.50	4972.9
320.75	4944.3
321.00	4911.2
321.25	4417.0
321.50	4689.6
321.75	4479.5
322.00	4592.1
322.25	4327.6
322.50	4064.8
322.75	3782.4
323.00	4055.9
323.25	4636.8
323.50	4217.7
323.75	3964.7
324.00	3606.3
324.25	3678.7
324.50	3534.8
324.75	3897.7
325.00	3729.7
325.25	4288.3
325.50	3355.2
325.75	3511.6
326.00	3379.3
326.25	3166.6
326.50	3321.2
326.75	3655.5
327.00	3459.7
327.25	3215.8
327.50	3774.4
327.75	2954.8
328.00	3382.9
328.25	3258.7
328.50	2953.0
328.75	3340.0
329.00	2942.3
329.25	2819.8
329.50	3183.6
329.75	2602.6
330.00	3566.1
330.25	3162.1
330.50	3117.4
330.75	3297.1
331.00	3134.4
331.25	3131.7
331.50	2603.5
331.75	3471.4
332.00	3432.9
332.25	3905.7
332.50	3465.1
332.75	3267.6
333.00	3366.8
333.25	3576.8
333.50	3317.6
333.75	4347.3
334.00	3699.3
334.25	3865.5
334.50	3870.9
334.75	3773.5
335.00	4007.6
335.25	3723.4
335.50	3881.6
335.75	3862.8
336.00	4223.9
336.25	3859.3
336.50	4181.9
336.75	4139.0
337.00	4666.3
337.25	4684.2
337.50	4714.6
337.75	4882.6
338.00	5063.2
338.25	4687.8
338.50	5025.6
338.75	5254.4
339.00	4652.0
339.25	4866.5
339.50	5131.1
339.75	4968.4
340.00	5454.6
340.25	5679.8
340.50	5132.9
340.75	5518.1
341.00	5892.6
341.25	5627.1
341.50	5596.7
341.75	5649.5
342.00	5702.2
342.25	5713.8
342.50	5465.3
342.75	5825.5
343.00	6076.7
343.25	6174.1
343.50	6289.4
343.75	5986.4
344.00	6620.1
344.25	6568.2
344.50	5825.5
344.75	6401.1
345.00	6936.5
345.25	6056.1
345.50	6434.2
345.75	6544.1
346.00	6601.3
346.25	6927.5
346.50	6754.1
346.75	6765.8
347.00	6766.7
347.25	6927.5
347.50	7345.8
347.75	7206.4
348.00	7244.8
348.25	7758.7
348.50	7642.5
348.75	7711.4
349.00	7697.1
349.25	7880.3
349.50	8647.1
349.75	7784.7
350.00	8375.4
350.25	8190.4
350.50	7976.8
350.75	8154.7
351.00	8667.7
351.25	8684.7
351.50	9203.9
351.75	8618.5
352.00	8933.1
352.25	9167.3
352.50	8991.2
352.75	9229.9
353.00	9555.2
353.25	9355.9
353.50	9269.2
353.75	9417.6
354.00	9231.7
354.25	9610.6
354.50	9504.2
354.75	9542.7
355.00	9888.6
355.25	9893.0
355.50	9897.5
355.75	9298.7
356.00	9644.6
356.25	10106
356.50	9607.9
356.75	9739.3
357.00	9726.8
357.25	10075
357.50	9347.8
357.75	9549.8
358.00	9336.2
358.25	9312.1
358.50	9313.0
358.75	9419.3
359.00	9269.2
359.25	9300.5
359.50	8696.3
359.75	9386.3
360.00	9155.7
360.25	9033.2
360.50	8829.5
360.75	8620.3
361.00	8836.6
361.25	8092.1
361.50	8502.3
361.75	8528.3
362.00	8321.8
362.25	8003.6
362.50	8275.3
362.75	8104.6
363.00	7796.3
363.25	7424.5
363.50	7831.1
363.75	7324.4
364.00	7665.8
364.25	7174.2
364.50	7052.7
364.75	6893.6
365.00	6485.1
365.25	6871.2
365.50	6960.6
365.75	6808.7
366.00	6289.4
366.25	6022.2
366.50	6021.3
366.75	5923.8
367.00	6042.7
367.25	5574.4
367.50	5710.2
367.75	5730.8
368.00	5583.3
368.25	5334.9
368.50	5613.7
368.75	5348.3
369.00	5140.0
369.25	5050.6
369.50	5170.4
369.75	4989.0
370.00	4755.7
370.25	5312.5
370.50	4743.2
370.75	4329.4
371.00	4450.9
371.25	4429.5
371.50	4658.3
371.75	4124.7
372.00	4028.2
372.25	4132.7
372.50	3808.3
372.75	3934.3
373.00	3739.5
373.25	4348.1
373.50	3991.5
373.75	3887.9
374.00	3889.6
374.25	3609.9
374.50	3382.9
374.75	3622.4
375.00	3512.5
375.25	3525.9
375.50	3559.8
375.75	3483.9
376.00	3554.5
376.25	3476.7
376.50	3562.5
376.75	3339.1
377.00	3332.8
377.25	3294.4
377.50	3490.1
377.75	3274.7
378.00	3475.8
378.25	2902.0
378.50	3402.5
378.75	3307.8
379.00	3194.3
379.25	3109.4
379.50	3235.4
379.75	3071.0
380.00	2983.4
380.25	3112.1
380.50	3237.2
380.75	3169.3
381.00	3450.8
381.25	2997.7
381.50	3240.8
381.75	2936.0
382.00	3004.8
382.25	2865.4
382.50	3076.3
382.75	3079.0
383.00	2876.1
383.25	3080.8
383.50	3436.5
383.75	2916.3
384.00	3298.9
384.25	3322.1
384.50	3135.3
384.75	3453.5
385.00	3221.1
385.25	3255.1
385.50	3465.1
385.75	3042.4
386.00	3161.2
386.25	3516.9
386.50	3425.8
386.75	3480.3
387.00	3625.1
387.25	3191.6
387.50	3258.7
387.75	3579.5
388.00	3444.6
388.25	3401.7
388.50	3469.6
388.75	3321.2
389.00	3370.4
389.25	3390.9
389.50	3542.9
389.75	3491.0
390.00	3557.2
390.25	3417.7
390.50	3209.5
390.75	3697.5
391.00	3697.5
391.25	3567.9
391.50	3255.1
391.75	3302.4
392.00	3411.5
392.25	3439.2
392.50	3352.5
392.75	3411.5
393.00	3428.5
393.25	3417.7
393.50	3627.8
393.75	3371.3
394.00	3520.5
394.25	3517.8
394.50	3556.3
394.75	3702.0
395.00	3265.8
395.25	3550.0
395.50	3518.7
395.75	3549.1
396.00	3659.9
396.25	3357.0
396.50	3712.7
396.75	3365.0
397.00	3627.8
397.25	3514.3
397.50	3457.1
397.75	3537.5
398.00	3495.5
398.25	3388.2
398.50	3474.0
398.75	3518.7
399.00	3658.2
399.25	3249.7
399.50	3331.9
399.75	3646.5
400.00	3534.8
400.25	3647.4
400.50	3160.3
400.75	3572.4
401.00	3210.4
401.25	3503.5
401.50	3218.4
401.75	3202.3
402.00	3298.0
402.25	3368.6
402.50	3258.7
402.75	3294.4
403.00	3477.6
403.25	3462.4
403.50	3214.9
403.75	3010.2
404.00	3216.6
404.25	3403.4
404.50	3295.3
404.75	3176.4
405.00	3286.4
405.25	3138.9
405.50	3271.2
405.75	3223.8
406.00	3287.3
406.25	3352.5
406.50	3184.5
406.75	3024.5
407.00	3095.1
407.25	3146.0
407.50	3311.4
407.75	3167.5
408.00	3063.8
408.25	3110.3
408.50	3195.2
408.75	3143.4
409.00	3025.4
409.25	3108.5
409.50	3050.4
409.75	3029.0
410.00	3353.4
410.25	3205.9
410.50	3029.8
410.75	3336.4
411.00	3087.0
411.25	3148.7
411.50	3141.6
411.75	3020.0
412.00	3063.8
412.25	3211.3
412.50	3185.4
412.75	3027.2
413.00	3034.3
413.25	3114.8
413.50	2868.1
413.75	3028.1
414.00	3007.5
414.25	3205.9
414.50	2963.7
414.75	2961.9
415.00	3020.0
415.25	3078.1
415.50	3074.5
415.75	2911.0
416.00	2892.2
416.25	2932.4
416.50	2823.4
416.75	2955.7
417.00	2925.3
417.25	2675.0
417.50	2933.3
417.75	2765.3
418.00	2707.2
418.25	2857.4
418.50	2583.9
418.75	2785.9
419.00	2741.2
419.25	2556.2
419.50	2648.2
419.75	2556.2
420.00	2523.1
420.25	2606.2
420.50	2513.3
420.75	2443.5
421.00	2475.7
421.25	2426.6
421.50	2357.7
421.75	2440.9
422.00	2377.4
422.25	2371.1
422.50	2261.2
422.75	2266.6
423.00	2288.0
423.25	2317.5
423.50	2229.0
423.75	2260.3
424.00	2247.8
424.25	2229.9
424.50	2271.0
424.75	1932.3
425.00	2170.9
425.25	2095.0
425.50	1972.5
425.75	1856.3
426.00	1817.9
426.25	1883.2
426.50	2027.0
426.75	2003.8
427.00	1792.9
427.25	1710.7
427.50	1713.3
427.75	1795.6
428.00	1796.5
428.25	1713.3
428.50	1598.9
428.75	1661.5
429.00	1601.6
429.25	1566.8
429.50	1454.1
429.75	1656.1
430.00	1512.2
430.25	1676.7
430.50	1425.5
430.75	1411.2
431.00	1522.1
431.25	1437.2
431.50	1291.5
431.75	1448.8
432.00	1356.7
432.25	1264.7
432.50	1413.9
432.75	1375.5
433.00	1177.1
433.25	1439.8
433.50	963.47
433.75	1119.9
434.00	1378.2
434.25	1194.1
434.50	1394.3
434.75	1290.6
435.00	1097.5
435.25	1339.7
435.50	1203.9
435.75	1149.4
436.00	1103.8
436.25	1055.5
436.50	1184.2
436.75	1122.6
437.00	1045.7
437.25	1190.5
437.50	1195.0
437.75	1089.5
438.00	1116.3
438.25	1003.7
438.50	1096.6
438.75	939.34
439.00	1052.0
439.25	988.50
439.50	1178.0
439.75	1127.9
440.00	1127.0
440.25	973.31
440.50	1084.1
440.75	1271.8
441.00	1044.8
441.25	956.32
441.50	1053.7
441.75	1110.9
442.00	1256.6
442.25	1026.9
442.50	1174.4
442.75	1026.9
443.00	1096.6
443.25	941.13
443.50	1203.9
443.75	1067.2
444.00	1385.3
444.25	1182.4
444.50	1098.4
444.75	1193.2
445.00	1033.2
445.25	1333.5
445.50	1170.8
445.75	1105.6
446.00	1132.4
446.25	1481.9
446.50	1582.0
446.75	1437.2
447.00	1298.6
447.25	1249.5
447.50	1245.0
447.75	1496.2
448.00	1295.1
448.25	1175.3
448.50	1445.2
448.75	1523.0
449.00	1280.8
449.25	1455.0
449.50	1408.6
449.75	1338.9
450.00	1451.5
450.25	1605.2
450.50	1516.7
450.75	1661.5
451.00	1581.1
451.25	1563.2
451.50	1707.1
451.75	1543.5
452.00	1732.1
452.25	1874.2
452.50	1659.7
452.75	1756.2
453.00	1837.6
453.25	1717.8
453.50	1822.4
453.75	1816.1
454.00	1921.6
454.25	2053.9
454.50	2053.9
454.75	1809.0
455.00	1903.7
455.25	2044.9
455.50	2066.4
455.75	2090.5
456.00	2096.8
456.25	2112.0
456.50	2145.9
456.75	2219.2
457.00	2282.7
457.25	2397.1
457.50	2574.0
457.75	2235.3
458.00	2578.5
458.25	2262.1
458.50	2572.2
458.75	2627.7
459.00	2623.2
459.25	2695.6
459.50	2685.8
459.75	2907.4
460.00	2815.3
460.25	2889.5
460.50	3033.4
460.75	3069.2
461.00	3035.2
461.25	3089.7
461.50	3210.4
461.75	3281.0
462.00	3298.9
462.25	3267.6
462.50	3571.5
462.75	3445.4
463.00	3458.0
463.25	3682.3
463.50	3567.9
463.75	3651.9
464.00	3873.6
464.25	3775.2
464.50	3832.4
464.75	3798.5
465.00	4045.2
465.25	4063.0
465.50	4079.1
465.75	4122.0
466.00	4193.5
466.25	4420.5
466.50	4381.2
466.75	4442.9
467.00	4568.9
467.25	4635.9
467.50	4619.0
467.75	4673.5
468.00	4726.2
468.25	4930.0
468.50	4866.5
468.75	4783.4
469.00	4837.9
469.25	5048.0
469.50	5159.7
469.75	5293.7
470.00	5214.2
470.25	5262.5
470.50	5282.1
470.75	5370.6
471.00	5376.9
471.25	5730.8
471.50	5751.3
471.75	5782.6
472.00	5731.7
472.25	5904.2
472.50	6068.6
472.75	6054.3
473.00	6263.5
473.25	6224.1
473.50	6209.0
473.75	6639.7
474.00	6568.2
474.25	6486.0
474.50	6715.7
474.75	6651.4
475.00	6789.0
475.25	6745.2
475.50	7117.0
475.75	6934.7
476.00	7365.5
476.25	7378.0
476.50	7519.2
476.75	7377.1
477.00	7499.5
477.25	7776.6
477.50	7634.5
477.75	7927.7
478.00	7881.2
478.25	8177.0
478.50	8093.9
478.75	8340.6
479.00	8363.8
479.25	8589.0
479.50	8564.0
479.75	8736.5
480.00	8887.6
480.25	8942.1
480.50	9104.7
480.75	9073.5
481.00	9157.5
481.25	9628.5
481.50	9428.3
481.75	9899.3
482.00	9744.7
482.25	10017
482.50	10147
482.75	10227
483.00	10395
483.25	10418
483.50	10722
483.75	10771
484.00	11201
484.25	11093
484.50	11398
484.75	11525
485.00	11526
485.25	11946
485.50	11923
485.75	12151
486.00	12438
486.25	12454
486.50	12557
486.75	12700
487.00	12981
487.25	13181
487.50	13439
487.75	13600
488.00	13809
488.25	14183
488.50	14247
488.75	14626
489.00	14529
489.25	15079
489.50	15064
489.75	15366
490.00	15643
490.25	15789
490.50	16231
490.75	16208
491.00	16651
491.25	16813
491.50	17166
491.75	17629
492.00	17772
492.25	17974
492.50	17831
492.75	18544
493.00	18680
493.25	18836
493.50	19328
493.75	19267
494.00	19771
494.25	20092
494.50	20113
494.75	20489
495.00	20708
495.25	20977
495.50	21184
495.75	21765
496.00	21652
496.25	22278
496.50	22575
496.75	22895
497.00	23092
497.25	23381
497.50	23610
497.75	23859
498.00	24162
498.25	24545
498.50	24758
498.75	25217
499.00	25333
499.25	25921
499.50	26279
499.75	26443
500.00	26602
500.25	27003
500.50	27324
500.75	27557
501.00	27847
501.25	28136
501.50	28568
501.75	28670
502.00	28965
502.25	29273
502.50	29429
502.75	29921
503.00	29997
503.25	30523
503.50	30610
503.75	30711
504.00	31056
504.25	31391
504.50	31603
504.75	31752
505.00	31980
505.25	32149
505.50	32683
505.75	32686
506.00	33141
506.25	33223
506.50	33266
506.75	33630
507.00	33525
507.25	34068
507.50	34256
507.75	34144
508.00	34850
508.25	34902
508.50	35182
508.75	35067
509.00	35222
509.25	35592
509.50	35817
509.75	35999
510.00	36388
510.25	36432
510.50	36822
510.75	36940
511.00	37051
511.25	37280
511.50	37412
511.75	37626
512.00	37787
512.25	38013
512.50	38469
512.75	38773
513.00	38906
513.25	39148
513.50	39100
513.75	39497
514.00	39607
514.25	40082
514.50	40416
514.75	40591
515.00	40803
515.25	41323
515.50	41292
515.75	41750
516.00	42236
516.25	42687
516.50	42938
516.75	43203
517.00	43621
517.25	44106
517.50	44151
517.75	44680
518.00	44943
518.25	45338
518.50	45803
518.75	46050
519.00	46627
519.25	46754
519.50	47380
519.75	47709
520.00	47906
520.25	48616
520.50	48879
520.75	49589
521.00	50213
521.25	50617
521.50	51050
521.75	51796
522.00	52302
522.25	52758
522.50	53284
522.75	53756
523.00	54636
523.25	54909
523.50	55700
523.75	56415
524.00	57006
524.25	57903
524.50	58275
524.75	58965
525.00	59417
525.25	60288
525.50	60952
525.75	61723
526.00	62290
526.25	63112
526.50	63886
526.75	64373
527.00	65162
527.25	66116
527.50	66880
527.75	67824
528.00	68520
528.25	69239
528.50	70131
528.75	71284
529.00	71996
529.25	72464
529.50	73511
529.75	74415
530.00	75250
530.25	75816
530.50	77092
530.75	77919
531.00	78475
531.25	79506
531.50	80179
531.75	81213
532.00	82156
532.25	83172
532.50	83931
532.75	84718
533.00	85733
533.25	86638
533.50	87186
533.75	87545
534.00	88495
534.25	88842
534.50	89730
534.75	90547
535.00	91202
535.25	92054
535.50	92820
535.75	93587
536.00	94155
536.25	95200
536.50	95644
536.75	96535
537.00	97285
537.25	97959
537.50	98776
537.75	99185
538.00	99812
538.25	1.0036e+05
538.50	1.0116e+05
538.75	1.0144e+05
539.00	1.0186e+05
539.25	1.0269e+05
539.50	1.0303e+05
539.75	1.0344e+05
540.00	1.0378e+05
540.25	1.0377e+05
540.50	1.0444e+05
540.75	1.0498e+05
541.00	1.0519e+05
541.25	1.0511e+05
541.50	1.0525e+05
541.75	1.0547e+05
542.00	1.0553e+05
542.25	1.0562e+05
542.50	1.0593e+05
542.75	1.0600e+05
543.00	1.0579e+05
543.25	1.0565e+05
543.50	1.0559e+05
543.75	1.0561e+05
544.00	1.0519e+05
544.25	1.0478e+05
544.50	1.0487e+05
544.75	1.0413e+05
545.00	1.0425e+05
545.25	1.0374e+05
545.50	1.0331e+05
545.75	1.0260e+05
546.00	1.0240e+05
546.25	1.0197e+05
546.50	1.0149e+05
546.75	1.0096e+05
547.00	1.0013e+05
547.25	99254
547.50	98871
547.75	98201
548.00	97533
548.25	96535
548.50	95786
548.75	94743
549.00	93953
549.25	93066
549.50	91907
549.75	91276
550.00	89740
550.25	89233
550.50	87855
550.75	87094
551.00	86078
551.25	84790
551.50	83795
551.75	82506
552.00	81572
552.25	79936
552.50	79277
552.75	77920
553.00	76977
553.25	75466
553.50	74433
553.75	73183
554.00	71809
554.25	70513
554.50	69334
554.75	67609
555.00	66176
555.25	64607
555.50	63215
555.75	61764
556.00	60820
556.25	59320
556.50	58265
556.75	57001
557.00	55767
557.25	54598
557.50	53167
557.75	52123
558.00	51169
558.25	50017
558.50	48733
558.75	47761
559.00	46690
559.25	45088
559.50	44516
559.75	43035
560.00	42103
560.25	41056
560.50	39872
560.75	38997
561.00	37940
561.25	37071
561.50	36180
561.75	35024
562.00	33893
562.25	33013
562.50	32359
562.75	31095
563.00	30665
563.25	29413
563.50	28710
563.75	27762
564.00	26807
564.25	26140
564.50	25380
564.75	24558
565.00	23707
565.25	23003
565.50	22135
565.75	21605
566.00	20900
566.25	20049
566.50	19471
566.75	18847
567.00	18215
567.25	17647
567.50	16943
567.75	16426
568.00	15641
568.25	15319
568.50	14480
568.75	14129
569.00	13628
569.25	13212
569.50	12695
569.75	12064
570.00	11424
570.25	11191
570.50	10460
570.75	10525
571.00	10076
571.25	9443.5
571.50	9005.5
571.75	8800.9
572.00	8503.2
572.25	8289.6
572.50	7635.4
572.75	7766.8
573.00	6965.1
573.25	6993.7
573.50	6561.1
573.75	6602.2
574.00	6360.9
574.25	5830.9
574.50	5771.9
574.75	5501.1
575.00	5552.0
575.25	5178.4
575.50	4953.2
575.75	4651.1
576.00	4667.2
576.25	4252.5
576.50	4076.4
576.75	3725.2
577.00	3746.6
577.25	3458.9
577.50	3345.3
577.75	3359.6
578.00	3089.7
578.25	2926.2
578.50	2866.3
578.75	2671.5
579.00	2507.9
579.25	2472.1
579.50	2273.7
579.75	2055.6
580.00	1826.0
580.25	2071.7
580.50	1914.4
580.75	1703.5
581.00	1245.9
581.25	1559.6
581.50	1452.4
581.75	1389.8
582.00	1534.6
582.25	1312.9
582.50	1209.3
582.75	1132.4
583.00	1140.4
583.25	799.02
583.50	820.47
583.75	839.24
584.00	869.63
584.25	981.35
584.50	621.16
584.75	581.84
585.00	729.31
585.25	526.42
585.50	589.88
585.75	347.67
586.00	700.71
586.25	485.31
586.50	383.42
586.75	352.14
587.00	468.33
587.25	390.57
587.50	432.58
587.75	380.74
588.00	347.67
588.25	359.29
588.50	256.51
588.75	222.55
589.00	41.113
589.25	96.526
589.50	167.13
589.75	203.78
590.00	199.31
590.25	86.695
590.50	157.30
590.75	224.33
591.00	-25.919
591.25	96.526
591.50	-44.688
591.75	13.406
592.00	-96.526
592.25	-37.538
592.50	105.46
592.75	30.388
593.00	81.332
593.25	143.90
593.50	111.72
593.75	65.245
594.00	9.8314
594.25	130.49
594.50	-149.26
594.75	91.164
595.00	30.388
595.25	18.769
595.50	-172.50
595.75	65.245
596.00	28.600
596.25	59.882
596.50	111.72
596.75	-25.919
597.00	4.4688
597.25	-102.78
597.50	267.23
597.75	322.65
598.00	-112.61
598.25	194.84
598.50	-62.563
598.75	137.64
599.00	-182.33
599.25	-168.03
599.50	-129.60
599.75	-33.963
600.00	-6.2564
600.25	3.5750
600.50	204.67
600.75	200.20
601.00	-103.68
601.25	-64.351
601.50	196.63
601.75	156.41
602.00	-9.8314
602.25	213.61
602.50	12.513
602.75	103.68
603.00	38.432
603.25	-44.688
603.50	84.013
603.75	-132.28
604.00	199.31
604.25	-3.5750
604.50	109.93
604.75	-57.201
605.00	-65.245
605.25	141.21
605.50	-125.13
605.75	37.538
606.00	-186.80
606.25	-45.582
606.50	79.545
606.75	19.663
607.00	4.7779e-05
607.25	44.688
607.50	317.29
607.75	-198.41
608.00	213.61
608.25	180.54
608.50	3.5750
608.75	61.670
609.00	-97.420
609.25	98.314
609.50	-16.981
609.75	139.43
610.00	-181.43
610.25	266.34
610.50	191.26
610.75	124.23
611.00	-33.963
611.25	10.725
611.50	46.476
611.75	260.98
612.00	17.875
612.25	76.863
612.50	4.7779e-05
612.75	234.17
613.00	-81.332
613.25	185.01
613.50	31.282
613.75	193.05
614.00	186.80
614.25	52.732
614.50	165.35
614.75	-10.725
615.00	302.98
615.25	-93.845
615.50	100.99
615.75	169.81
616.00	35.750
616.25	207.35
616.50	194.84
616.75	329.80
617.00	129.60
617.25	7.1500
617.50	5.3625
617.75	-92.057
618.00	3.5750
618.25	84.907
618.50	178.75
618.75	146.58
619.00	160.88
619.25	-67.032
619.50	255.62
619.75	77.757
620.00	-139.43
620.25	275.28
620.50	-15.194
620.75	182.33
621.00	-31.282
621.25	43.794
621.50	335.16
621.75	141.21
622.00	269.92
622.25	25.919
622.50	97.420
622.75	186.80
623.00	72.395
623.25	176.07
623.50	-69.713
623.75	193.05
624.00	29.494
624.25	64.351
624.50	51.838
624.75	248.47
625.00	216.29
625.25	193.95
625.50	-84.907
625.75	154.62
626.00	89.376
626.25	53.626
626.50	52.732
626.75	276.17
627.00	146.58
627.25	182.33
627.50	-32.175
627.75	174.28
628.00	84.907
628.25	-102.78
628.50	176.96
628.75	-25.919
629.00	165.35
629.25	-97.420
629.50	73.288
629.75	-127.81
630.00	361.97
630.25	191.26
630.50	-58.094
630.75	228.80
631.00	-30.388
631.25	273.49
631.50	180.54
631.75	159.09
632.00	34.857
632.25	-67.926
632.50	199.31
632.75	68.820
633.00	131.38
633.25	27.707
633.50	123.34
633.75	168.92
634.00	151.94
634.25	-81.332
634.50	69.713
634.75	74.182
635.00	57.201
635.25	201.10
635.50	-47.369
635.75	162.66
636.00	127.81
636.25	-16.981
636.50	101.89
636.75	172.50
637.00	145.68
637.25	-128.70
637.50	215.40
637.75	120.66
638.00	-35.750
638.25	339.63
638.50	191.26
638.75	-42.901
639.00	249.36
639.25	0.89377
639.50	173.39
639.75	-45.582
640.00	217.18
640.25	12.513
640.50	33.963
640.75	-34.857
641.00	73.288
641.25	255.62
641.50	17.875
641.75	118.87
642.00	169.81
642.25	100.10
642.50	-100.10
642.75	91.164
643.00	99.207
643.25	-27.707
643.50	189.48
643.75	-135.85
644.00	172.50
644.25	131.38
644.50	62.563
644.75	-11.619
645.00	68.820
645.25	46.476
645.50	175.18
645.75	47.369
646.00	-3.5750
646.25	14.300
646.50	160.88
646.75	-160.88
647.00	288.68
647.25	17.875
647.50	196.63
647.75	-110.83
648.00	258.30
648.25	93.845
648.50	5.3626
648.75	179.65
649.00	135.85
649.25	286.00
649.50	-58.988
649.75	-22.344
650.00	80.438
650.25	108.15
650.50	21.450
650.75	104.57
651.00	159.09
651.25	85.801
651.50	103.68
651.75	-142.11
652.00	-72.395
652.25	103.68
652.50	-3.5459e-05
652.75	227.02
653.00	93.845
653.25	77.757
653.50	254.72
653.75	59.882
654.00	40.219
654.25	-24.132
654.50	214.50
654.75	-73.288
655.00	-121.55
655.25	93.845
655.50	130.49
655.75	247.57
656.00	99.207
656.25	112.61
656.50	94.739
656.75	157.30
657.00	220.76
657.25	21.450
657.50	25.919
657.75	-97.420
658.00	190.37
658.25	88.482
658.50	161.77
658.75	140.32
659.00	-75.970
659.25	237.74
659.50	-73.288
659.75	144.79
660.00	-16.981
660.25	79.545
660.50	77.757
660.75	39.326
661.00	5.3626
661.25	233.27
661.50	344.99
661.75	-53.626
662.00	-33.963
662.25	113.51
662.50	319.97
662.75	204.67
663.00	91.163
663.25	228.80
663.50	149.26
663.75	212.72
664.00	-301.20
664.25	48.263
664.50	235.06
664.75	313.71
665.00	-43.794
665.25	25.919
665.50	192.16
665.75	55.413
666.00	116.19
666.25	-118.87
666.50	75.970
666.75	176.07
667.00	170.71
667.25	5.3625
667.50	228.80
667.75	75.076
668.00	181.43
668.25	132.28
668.50	159.98
668.75	-106.36
669.00	407.55
669.25	218.97
669.50	-148.36
669.75	-10.725
670.00	-44.688
670.25	159.98
670.50	-20.556
670.75	49.157
671.00	-51.838
671.25	218.08
671.50	313.71
671.75	5.3626
672.00	-155.51
672.25	19.663
672.50	158.20
672.75	-131.38
673.00	-26.813
673.25	99.207
673.50	47.369
673.75	143.00
674.00	-25.919
674.25	156.41
674.50	-51.838
674.75	170.71
675.00	218.08
675.25	35.750
675.50	187.69
675.75	77.757
676.00	301.20
676.25	-9.8313
676.50	42.007
676.75	211.82
677.00	377.17
677.25	197.52
677.50	220.76
677.75	100.10
678.00	58.094
678.25	160.88
678.50	87.588
678.75	25.919
679.00	180.54
679.25	25.025
679.50	85.801
679.75	-27.707
680.00	124.23
680.25	78.651
680.50	265.45
680.75	-76.863
681.00	144.79
681.25	151.05
681.50	46.476
681.75	111.72
682.00	35.750
682.25	80.438
682.50	109.04
682.75	117.98
683.00	-39.325
683.25	-16.088
683.50	330.69
683.75	24.132
684.00	8.9376
684.25	-1.7875
684.50	-9.8314
684.75	58.988
685.00	-2.6813
685.25	170.71
685.50	6.2565
685.75	336.05
686.00	-50.051
686.25	39.325
686.50	146.58
686.75	218.08
687.00	95.632
687.25	67.926
687.50	115.30
687.75	89.376
688.00	56.307
688.25	123.34
688.50	28.600
688.75	151.05
689.00	146.58
689.25	365.55
689.50	155.51
689.75	27.707
690.00	73.288
690.25	33.069
690.50	241.32
690.75	-45.582
691.00	282.43
691.25	185.90
691.50	172.50
691.75	190.10
692.00	29.494
692.25	225.23
692.50	-28.600
692.75	248.47
693.00	44.688
693.25	24.132
693.50	7.1501
693.75	-8.9376
694.00	235.95
694.25	-4.4687
694.50	65.245
694.75	-13.407
695.00	83.120
695.25	11.619
695.50	42.900
695.75	376.27
696.00	115.30
696.25	36.644
696.50	-73.288
696.75	185.01
697.00	253.83
697.25	169.81
697.50	113.51
697.75	67.032
698.00	144.79
698.25	28.600
698.50	-92.951
698.75	134.96
699.00	102.78
699.25	115.30
699.50	27.707
699.75	165.35
700.00	-69.713
