Wavelength (nm)	N13 abs N
220.00	0.28886
220.25	0.29020
220.50	0.29298
220.75	0.29087
221.00	0.29447
221.25	0.29308
221.50	0.29382
221.75	0.29552
222.00	0.29692
222.25	0.29489
222.50	0.29711
222.75	0.29746
223.00	0.29630
223.25	0.29412
223.50	0.29557
223.75	0.29593
224.00	0.29510
224.25	0.29413
224.50	0.29577
224.75	0.29477
225.00	0.29558
225.25	0.29206
225.50	0.29347
225.75	0.29043
226.00	0.29071
226.25	0.28843
226.50	0.28786
226.75	0.28631
227.00	0.28804
227.25	0.28444
227.50	0.28557
227.75	0.28178
228.00	0.28420
228.25	0.28295
228.50	0.28088
228.75	0.28063
229.00	0.28122
229.25	0.27743
229.50	0.27782
229.75	0.27536
230.00	0.27430
230.25	0.27580
230.50	0.27618
230.75	0.27380
231.00	0.27424
231.25	0.27198
231.50	0.27226
231.75	0.27084
232.00	0.27152
232.25	0.27304
232.50	0.27024
232.75	0.26943
233.00	0.26909
233.25	0.27003
233.50	0.26924
233.75	0.27023
234.00	0.27013
234.25	0.27315
234.50	0.27297
234.75	0.27332
235.00	0.27473
235.25	0.27619
235.50	0.27762
235.75	0.27800
236.00	0.28050
236.25	0.28401
236.50	0.28481
236.75	0.28487
237.00	0.28963
237.25	0.29097
237.50	0.29417
237.75	0.29648
238.00	0.29817
238.25	0.30193
238.50	0.30375
238.75	0.30726
239.00	0.30948
239.25	0.31215
239.50	0.31440
239.75	0.31661
240.00	0.32206
240.25	0.32468
240.50	0.32603
240.75	0.32930
241.00	0.33392
241.25	0.33446
241.50	0.33983
241.75	0.34415
242.00	0.34723
242.25	0.34817
242.50	0.35154
242.75	0.35507
243.00	0.35804
243.25	0.36286
243.50	0.36628
243.75	0.36908
244.00	0.37309
244.25	0.37585
244.50	0.37727
244.75	0.38040
245.00	0.38295
245.25	0.38649
245.50	0.38725
245.75	0.38940
246.00	0.39123
246.25	0.39454
246.50	0.39601
246.75	0.39705
247.00	0.39929
247.25	0.40083
247.50	0.40118
247.75	0.40100
248.00	0.40025
248.25	0.40006
248.50	0.39965
248.75	0.39763
249.00	0.39533
249.25	0.39335
249.50	0.39148
249.75	0.38743
250.00	0.38386
250.25	0.37728
250.50	0.37349
250.75	0.36767
251.00	0.36077
251.25	0.35402
251.50	0.34545
251.75	0.33773
252.00	0.32885
252.25	0.32136
252.50	0.31260
252.75	0.30340
253.00	0.29487
253.25	0.28612
253.50	0.27685
253.75	0.26816
254.00	0.25952
254.25	0.24954
254.50	0.24280
254.75	0.23664
255.00	0.23372
255.25	0.22743
255.50	0.21942
255.75	0.21162
256.00	0.20559
256.25	0.19982
256.50	0.19231
256.75	0.18692
257.00	0.18123
257.25	0.17554
257.50	0.16892
257.75	0.16579
258.00	0.16172
258.25	0.15800
258.50	0.15416
258.75	0.15238
259.00	0.14863
259.25	0.14526
259.50	0.14270
259.75	0.14062
260.00	0.13732
260.25	0.13640
260.50	0.13499
260.75	0.13397
261.00	0.13256
261.25	0.13251
261.50	0.13099
261.75	0.13044
262.00	0.12932
262.25	0.12813
262.50	0.12896
262.75	0.12751
263.00	0.12826
263.25	0.12772
263.50	0.12818
263.75	0.12886
264.00	0.12835
264.25	0.12816
264.50	0.12879
264.75	0.13041
265.00	0.13033
265.25	0.13202
265.50	0.13163
265.75	0.13202
266.00	0.13345
266.25	0.13444
266.50	0.13455
266.75	0.13690
267.00	0.13839
267.25	0.13900
267.50	0.14005
267.75	0.14132
268.00	0.14137
268.25	0.14153
268.50	0.14278
268.75	0.14535
269.00	0.14674
269.25	0.14906
269.50	0.14968
269.75	0.15040
270.00	0.15225
270.25	0.15340
270.50	0.15459
270.75	0.15579
271.00	0.15666
271.25	0.15706
271.50	0.15808
271.75	0.15921
272.00	0.15971
272.25	0.16237
272.50	0.16208
272.75	0.16383
273.00	0.16356
273.25	0.16480
273.50	0.16442
273.75	0.16522
274.00	0.16531
274.25	0.16712
274.50	0.16677
274.75	0.16786
275.00	0.16805
275.25	0.16719
275.50	0.16915
275.75	0.16771
276.00	0.16816
276.25	0.16824
276.50	0.16849
276.75	0.16835
277.00	0.16762
277.25	0.16794
277.50	0.16768
277.75	0.16824
278.00	0.16706
278.25	0.16680
278.50	0.16667
278.75	0.16582
279.00	0.16612
279.25	0.16645
279.50	0.16425
279.75	0.16590
280.00	0.16482
280.25	0.16422
280.50	0.16459
280.75	0.16440
281.00	0.16531
281.25	0.16322
281.50	0.16329
281.75	0.16423
282.00	0.16234
282.25	0.16164
282.50	0.16131
282.75	0.16010
283.00	0.16082
283.25	0.15932
283.50	0.15968
283.75	0.15905
284.00	0.15826
284.25	0.15610
284.50	0.15492
284.75	0.15413
285.00	0.15419
285.25	0.15321
285.50	0.15252
285.75	0.15212
286.00	0.15008
286.25	0.15111
286.50	0.15084
286.75	0.14938
287.00	0.14883
287.25	0.14862
287.50	0.14525
287.75	0.14576
288.00	0.14354
288.25	0.14440
288.50	0.14377
288.75	0.14225
289.00	0.14226
289.25	0.14246
289.50	0.14145
289.75	0.14217
290.00	0.14153
290.25	0.14081
290.50	0.14064
290.75	0.13990
291.00	0.13885
291.25	0.14015
291.50	0.14005
291.75	0.13879
292.00	0.13936
292.25	0.13891
292.50	0.13907
292.75	0.13811
293.00	0.13858
293.25	0.13788
293.50	0.13688
293.75	0.13630
294.00	0.13619
294.25	0.13543
294.50	0.13609
294.75	0.13747
295.00	0.13541
295.25	0.13519
295.50	0.13371
295.75	0.13384
296.00	0.13234
296.25	0.13200
296.50	0.13110
296.75	0.13130
297.00	0.13050
297.25	0.12812
297.50	0.12809
297.75	0.12574
298.00	0.12542
298.25	0.12270
298.50	0.12246
298.75	0.12025
299.00	0.11884
299.25	0.11829
299.50	0.11476
299.75	0.11343
300.00	0.11247
300.25	0.11128
300.50	0.10949
300.75	0.10909
301.00	0.10687
301.25	0.10383
301.50	0.10272
301.75	0.10044
302.00	0.099155
302.25	0.097147
302.50	0.095770
302.75	0.093416
303.00	0.090315
303.25	0.089311
303.50	0.087364
303.75	0.085811
304.00	0.084176
304.25	0.082772
304.50	0.079441
304.75	0.079902
305.00	0.077168
305.25	0.075397
305.50	0.072535
305.75	0.070398
306.00	0.068803
306.25	0.068315
306.50	0.068654
306.75	0.067596
307.00	0.064536
307.25	0.062935
307.50	0.061137
307.75	0.060106
308.00	0.057786
308.25	0.056585
308.50	0.055222
308.75	0.054279
309.00	0.053478
309.25	0.052583
309.50	0.051416
309.75	0.051070
310.00	0.054225
310.25	0.048078
310.50	0.048546
310.75	0.050439
311.00	0.051416
311.25	0.046871
311.50	0.047481
311.75	0.049666
312.00	0.047542
312.25	0.040846
312.50	0.048268
312.75	0.044815
313.00	0.044293
313.25	0.042936
313.50	0.045785
313.75	0.044625
314.00	0.041518
314.25	0.043004
314.50	0.040507
314.75	0.038615
315.00	0.037081
315.25	0.038038
315.50	0.036111
315.75	0.035976
316.00	0.038927
316.25	0.036376
316.50	0.037217
316.75	0.037108
317.00	0.036695
317.25	0.034008
317.50	0.037448
317.75	0.033757
318.00	0.036695
318.25	0.036769
318.50	0.034822
318.75	0.035881
319.00	0.037794
319.25	0.035148
319.50	0.032699
319.75	0.038615
320.00	0.038011
320.25	0.030121
320.50	0.037448
320.75	0.035786
321.00	0.036396
321.25	0.032536
321.50	0.033126
321.75	0.034164
322.00	0.040168
322.25	0.034788
322.50	0.035989
322.75	0.033289
323.00	0.033784
323.25	0.039598
323.50	0.038832
323.75	0.037665
324.00	0.036213
324.25	0.037027
324.50	0.039388
324.75	0.039591
325.00	0.039205
325.25	0.043194
325.50	0.041294
325.75	0.038994
326.00	0.037990
326.25	0.036342
326.50	0.041376
326.75	0.041525
327.00	0.043139
327.25	0.042434
327.50	0.042624
327.75	0.043146
328.00	0.042963
328.25	0.044754
328.50	0.044564
328.75	0.047285
329.00	0.042597
329.25	0.046884
329.50	0.048350
329.75	0.046626
330.00	0.047495
330.25	0.049435
330.50	0.052820
330.75	0.051056
331.00	0.051952
331.25	0.052718
331.50	0.047020
331.75	0.051470
332.00	0.052834
332.25	0.055378
332.50	0.052861
332.75	0.049516
333.00	0.055147
333.25	0.051301
333.50	0.054225
333.75	0.057515
334.00	0.054394
334.25	0.056714
334.50	0.053519
334.75	0.054543
335.00	0.054252
335.25	0.051681
335.50	0.055948
335.75	0.054828
336.00	0.055514
336.25	0.054442
336.50	0.056721
336.75	0.054781
337.00	0.060513
337.25	0.058960
337.50	0.059435
337.75	0.060194
338.00	0.058648
338.25	0.061490
338.50	0.061443
338.75	0.060880
339.00	0.062847
339.25	0.064842
339.50	0.064753
339.75	0.063084
340.00	0.065133
340.25	0.069699
340.50	0.070879
340.75	0.072887
341.00	0.070072
341.25	0.073301
341.50	0.073627
341.75	0.074733
342.00	0.073762
342.25	0.077975
342.50	0.077338
342.75	0.079366
343.00	0.083328
343.25	0.083749
343.50	0.083389
343.75	0.085187
344.00	0.087873
344.25	0.087853
344.50	0.089888
344.75	0.091448
345.00	0.096082
345.25	0.093775
345.50	0.092120
345.75	0.094026
346.00	0.095125
346.25	0.096496
346.50	0.099942
346.75	0.096855
347.00	0.097249
347.25	0.097852
347.50	0.097167
347.75	0.097052
348.00	0.096536
348.25	0.098260
348.50	0.097615
348.75	0.097778
349.00	0.096984
349.25	0.098042
349.50	0.099074
349.75	0.094759
350.00	0.095736
350.25	0.090838
350.50	0.091279
350.75	0.087378
351.00	0.091686
351.25	0.088117
351.50	0.087419
351.75	0.082317
352.00	0.083701
352.25	0.081991
352.50	0.078165
352.75	0.079034
353.00	0.075845
353.25	0.072426
353.50	0.071659
353.75	0.073227
354.00	0.070018
354.25	0.067101
354.50	0.065500
354.75	0.066002
355.00	0.064143
355.25	0.061456
355.50	0.060330
355.75	0.055642
356.00	0.056965
356.25	0.059408
356.50	0.054984
356.75	0.053336
357.00	0.050819
357.25	0.052875
357.50	0.051063
357.75	0.048580
358.00	0.044863
358.25	0.043614
358.50	0.043689
358.75	0.044347
359.00	0.041070
359.25	0.041613
359.50	0.038445
359.75	0.038872
360.00	0.038866
360.25	0.040182
360.50	0.038764
360.75	0.035799
361.00	0.034198
361.25	0.032339
361.50	0.033513
361.75	0.034293
362.00	0.033730
362.25	0.027007
362.50	0.031349
362.75	0.031797
363.00	0.030718
363.25	0.031593
363.50	0.031959
363.75	0.027007
364.00	0.028622
364.25	0.024897
364.50	0.026770
364.75	0.025779
365.00	0.024314
365.25	0.026030
365.50	0.026756
365.75	0.027509
366.00	0.023961
366.25	0.021811
366.50	0.021919
366.75	0.021668
367.00	0.022882
367.25	0.018812
367.50	0.022489
367.75	0.021186
368.00	0.023045
368.25	0.019267
368.50	0.019504
368.75	0.020366
369.00	0.019952
369.25	0.020169
369.50	0.022543
369.75	0.020386
370.00	0.019117
370.25	0.020128
370.50	0.019117
370.75	0.016784
371.00	0.018181
371.25	0.017828
371.50	0.018765
371.75	0.018439
372.00	0.016899
372.25	0.016702
372.50	0.014986
372.75	0.018914
373.00	0.017157
373.25	0.019640
373.50	0.016363
373.75	0.017896
374.00	0.018391
374.25	0.016417
374.50	0.015888
374.75	0.016126
375.00	0.015983
375.25	0.015040
375.50	0.017021
375.75	0.016974
376.00	0.017272
376.25	0.017313
376.50	0.017211
376.75	0.018005
377.00	0.017828
377.25	0.016051
377.50	0.017184
377.75	0.017231
378.00	0.017055
378.25	0.014932
378.50	0.018676
378.75	0.017469
379.00	0.017136
379.25	0.017197
379.50	0.015698
379.75	0.018351
380.00	0.017503
380.25	0.017238
380.50	0.018073
380.75	0.016933
381.00	0.017245
381.25	0.016784
381.50	0.018473
381.75	0.016153
382.00	0.017917
382.25	0.017170
382.50	0.016417
382.75	0.016682
383.00	0.015875
383.25	0.018873
383.50	0.019979
383.75	0.014966
384.00	0.019368
384.25	0.019395
384.50	0.015590
384.75	0.018792
385.00	0.016187
385.25	0.017116
385.50	0.017625
385.75	0.017564
386.00	0.018473
386.25	0.017530
386.50	0.017435
386.75	0.017333
387.00	0.017754
387.25	0.018473
387.50	0.018303
387.75	0.017937
388.00	0.019165
388.25	0.018073
388.50	0.017157
388.75	0.018086
389.00	0.017903
389.25	0.018093
389.50	0.020054
389.75	0.016729
390.00	0.019056
390.25	0.016058
390.50	0.014877
390.75	0.015217
391.00	0.016363
391.25	0.017455
391.50	0.016200
391.75	0.016302
392.00	0.016505
392.25	0.019762
392.50	0.015345
392.75	0.017618
393.00	0.014959
393.25	0.019009
393.50	0.015834
393.75	0.017279
394.00	0.016600
394.25	0.017028
394.50	0.018127
394.75	0.016892
395.00	0.015447
395.25	0.015420
395.50	0.016037
395.75	0.018012
396.00	0.016702
396.25	0.016119
396.50	0.015413
396.75	0.015725
397.00	0.015393
397.25	0.016790
397.50	0.014402
397.75	0.014518
398.00	0.014735
398.25	0.014653
398.50	0.014199
398.75	0.014708
399.00	0.016492
399.25	0.013290
399.50	0.014966
399.75	0.015698
400.00	0.015610
400.25	0.013378
400.50	0.014158
400.75	0.016051
401.00	0.013229
401.25	0.014369
401.50	0.012354
401.75	0.013005
402.00	0.013595
402.25	0.013636
402.50	0.013554
402.75	0.014111
403.00	0.014809
403.25	0.014124
403.50	0.014029
403.75	0.011716
404.00	0.012862
404.25	0.013147
404.50	0.012367
404.75	0.013236
405.00	0.012055
405.25	0.011431
405.50	0.013690
405.75	0.010943
406.00	0.012245
406.25	0.014653
406.50	0.012489
406.75	0.012835
407.00	0.012937
407.25	0.011960
407.50	0.012028
407.75	0.012143
408.00	0.011173
408.25	0.011519
408.50	0.012876
408.75	0.012333
409.00	0.011784
409.25	0.013466
409.50	0.012259
409.75	0.011214
410.00	0.013358
410.25	0.012367
410.50	0.011194
410.75	0.011329
411.00	0.011384
411.25	0.012313
411.50	0.012082
411.75	0.010888
412.00	0.010739
412.25	0.012801
412.50	0.012951
412.75	0.011214
413.00	0.010162
413.25	0.011506
413.50	0.010142
413.75	0.010678
414.00	0.011105
414.25	0.011390
414.50	0.011696
414.75	0.010006
415.00	0.010549
415.25	0.010142
415.50	0.010162
415.75	0.0099114
416.00	0.0092805
416.25	0.010590
416.50	0.010542
416.75	0.011017
417.00	0.010454
417.25	0.0091516
417.50	0.010040
417.75	0.0096061
418.00	0.0093891
418.25	0.0099046
418.50	0.0092941
418.75	0.0089820
419.00	0.0085818
419.25	0.0093891
419.50	0.0090092
419.75	0.0081747
420.00	0.0076252
420.25	0.0079305
420.50	0.0083715
420.75	0.0088938
421.00	0.0088260
421.25	0.0076727
421.50	0.0085750
421.75	0.0097283
422.00	0.0087174
422.25	0.0071775
422.50	0.0080187
422.75	0.0067840
423.00	0.0076388
423.25	0.0079509
423.50	0.0078627
423.75	0.0092466
424.00	0.0081679
424.25	0.0094365
424.50	0.0076524
424.75	0.0078084
425.00	0.0069061
425.25	0.0083375
425.50	0.0080933
425.75	0.0069129
426.00	0.0065873
426.25	0.0078830
426.50	0.0084054
426.75	0.0075574
427.00	0.0085411
427.25	0.0074963
427.50	0.0077677
427.75	0.0099250
428.00	0.0070621
428.25	0.0082968
428.50	0.0064516
428.75	0.0083850
429.00	0.0074081
429.25	0.0075438
429.50	0.0083375
429.75	0.010122
430.00	0.0090566
430.25	0.0091109
430.50	0.0078898
430.75	0.0080323
431.00	0.0078220
431.25	0.0073742
431.50	0.0064991
431.75	0.0084325
432.00	0.0083511
432.25	0.0083172
432.50	0.0094094
432.75	0.010475
433.00	0.0099928
433.25	0.0084393
433.50	0.0081340
433.75	0.0081747
434.00	0.0096672
434.25	0.0090024
434.50	0.0088124
434.75	0.0097350
435.00	0.0096265
435.25	0.012014
435.50	0.010230
435.75	0.010522
436.00	0.010569
436.25	0.011275
436.50	0.0099861
436.75	0.0099996
437.00	0.010251
437.25	0.010610
437.50	0.011492
437.75	0.012673
438.00	0.013622
438.25	0.012028
438.50	0.011696
438.75	0.0097825
439.00	0.012829
439.25	0.013127
439.50	0.012713
439.75	0.013215
440.00	0.013107
440.25	0.013175
440.50	0.011892
440.75	0.013907
441.00	0.013541
441.25	0.013073
441.50	0.014789
441.75	0.014416
442.00	0.015461
442.25	0.015237
442.50	0.014918
442.75	0.014959
443.00	0.016248
443.25	0.015841
443.50	0.016404
443.75	0.016071
444.00	0.018079
444.25	0.016872
444.50	0.017394
444.75	0.017754
445.00	0.016594
445.25	0.017740
445.50	0.019803
445.75	0.016336
446.00	0.016953
446.25	0.019626
446.50	0.021458
446.75	0.020481
447.00	0.022075
447.25	0.021254
447.50	0.021397
447.75	0.022272
448.00	0.021634
448.25	0.022204
448.50	0.023072
448.75	0.024266
449.00	0.022726
449.25	0.024531
449.50	0.024002
449.75	0.026057
450.00	0.025949
450.25	0.027136
450.50	0.026946
450.75	0.027618
451.00	0.026492
451.25	0.027584
451.50	0.028140
451.75	0.028622
452.00	0.030121
452.25	0.030548
452.50	0.030318
452.75	0.031783
453.00	0.031607
453.25	0.031518
453.50	0.032828
453.75	0.032869
454.00	0.033004
454.25	0.033201
454.50	0.034381
454.75	0.032902
455.00	0.035670
455.25	0.035813
455.50	0.036288
455.75	0.037482
456.00	0.038208
456.25	0.037502
456.50	0.038845
456.75	0.040514
457.00	0.040901
457.25	0.040724
457.50	0.041267
457.75	0.040826
458.00	0.042617
458.25	0.041776
458.50	0.043798
458.75	0.043716
459.00	0.044937
459.25	0.046437
459.50	0.046559
459.75	0.047223
460.00	0.047156
460.25	0.049232
460.50	0.047671
460.75	0.050453
461.00	0.049808
461.25	0.050080
461.50	0.050609
461.75	0.052956
462.00	0.053641
462.25	0.053675
462.50	0.055615
462.75	0.054571
463.00	0.055988
463.25	0.056938
463.50	0.057271
463.75	0.057182
464.00	0.058180
464.25	0.058716
464.50	0.058885
464.75	0.061280
465.00	0.061619
465.25	0.063132
465.50	0.063132
465.75	0.063430
466.00	0.064224
466.25	0.065167
466.50	0.065676
466.75	0.065832
467.00	0.068220
467.25	0.068342
467.50	0.068267
467.75	0.069984
468.00	0.069963
468.25	0.072148
468.50	0.072901
468.75	0.072799
469.00	0.073640
469.25	0.075628
469.50	0.076612
469.75	0.077161
470.00	0.076279
470.25	0.079142
470.50	0.080228
470.75	0.082195
471.00	0.082419
471.25	0.084793
471.50	0.084563
471.75	0.086781
472.00	0.087242
472.25	0.088429
472.50	0.089691
472.75	0.090282
473.00	0.093497
473.25	0.094087
473.50	0.094644
473.75	0.098260
474.00	0.099352
474.25	0.10004
474.50	0.10255
474.75	0.10264
475.00	0.10538
475.25	0.10679
475.50	0.11019
475.75	0.10945
476.00	0.11276
476.25	0.11652
476.50	0.11713
476.75	0.11889
477.00	0.12141
477.25	0.12413
477.50	0.12517
477.75	0.12734
478.00	0.13022
478.25	0.13183
478.50	0.13433
478.75	0.13556
479.00	0.13863
479.25	0.14141
479.50	0.14439
479.75	0.14438
480.00	0.14767
480.25	0.14963
480.50	0.15296
480.75	0.15471
481.00	0.15753
481.25	0.16020
481.50	0.16151
481.75	0.16376
482.00	0.16590
482.25	0.17026
482.50	0.17118
482.75	0.17550
483.00	0.17924
483.25	0.17997
483.50	0.18255
483.75	0.18698
484.00	0.18950
484.25	0.19095
484.50	0.19340
484.75	0.19660
485.00	0.19890
485.25	0.20377
485.50	0.20448
485.75	0.20902
486.00	0.21165
486.25	0.21314
486.50	0.21562
486.75	0.21920
487.00	0.22180
487.25	0.22373
487.50	0.22762
487.75	0.23000
488.00	0.23304
488.25	0.23646
488.50	0.23984
488.75	0.24205
489.00	0.24291
489.25	0.24693
489.50	0.24981
489.75	0.25163
490.00	0.25291
490.25	0.25700
490.50	0.25982
490.75	0.26096
491.00	0.26411
491.25	0.26620
491.50	0.26825
491.75	0.27153
492.00	0.27364
492.25	0.27450
492.50	0.27641
492.75	0.28061
493.00	0.28285
493.25	0.28401
493.50	0.28624
493.75	0.28591
494.00	0.29006
494.25	0.28924
494.50	0.29101
494.75	0.29293
495.00	0.29395
495.25	0.29608
495.50	0.29917
495.75	0.30070
496.00	0.30295
496.25	0.30274
496.50	0.30567
496.75	0.30609
497.00	0.30795
497.25	0.30873
497.50	0.30987
497.75	0.31022
498.00	0.31177
498.25	0.31440
498.50	0.31553
498.75	0.31628
499.00	0.31902
499.25	0.32020
499.50	0.32133
499.75	0.32442
500.00	0.32330
500.25	0.32610
500.50	0.32545
500.75	0.32879
501.00	0.32962
501.25	0.33231
501.50	0.33420
501.75	0.33520
502.00	0.33697
502.25	0.33830
502.50	0.34034
502.75	0.34347
503.00	0.34505
503.25	0.34651
503.50	0.34821
503.75	0.34996
504.00	0.35191
504.25	0.35447
504.50	0.35860
504.75	0.36026
505.00	0.36275
505.25	0.36516
505.50	0.36847
505.75	0.37111
506.00	0.37359
506.25	0.37803
506.50	0.37944
506.75	0.38423
507.00	0.38586
507.25	0.39113
507.50	0.39629
507.75	0.39882
508.00	0.40343
508.25	0.40690
508.50	0.41304
508.75	0.41694
509.00	0.42072
509.25	0.42715
509.50	0.42923
509.75	0.43554
510.00	0.44304
510.25	0.44638
510.50	0.45023
510.75	0.45856
511.00	0.46467
511.25	0.47093
511.50	0.47657
511.75	0.48316
512.00	0.48898
512.25	0.49402
512.50	0.50297
512.75	0.51077
513.00	0.51735
513.25	0.52395
513.50	0.52997
513.75	0.53822
514.00	0.54358
514.25	0.55321
514.50	0.56085
514.75	0.56807
515.00	0.57606
515.25	0.58760
515.50	0.59815
515.75	0.60788
516.00	0.61850
516.25	0.62814
516.50	0.63721
516.75	0.64610
517.00	0.65454
517.25	0.66260
517.50	0.67142
517.75	0.68227
518.00	0.69048
518.25	0.69851
518.50	0.70655
518.75	0.71487
519.00	0.72607
519.25	0.73060
519.50	0.74272
519.75	0.75141
520.00	0.75989
520.25	0.76987
520.50	0.77774
520.75	0.78555
521.00	0.79807
521.25	0.80837
521.50	0.81411
521.75	0.82266
522.00	0.82965
522.25	0.83778
522.50	0.84871
522.75	0.85403
523.00	0.86328
523.25	0.87416
523.50	0.88104
523.75	0.88547
524.00	0.89584
524.25	0.90503
524.50	0.91135
524.75	0.91818
525.00	0.92260
525.25	0.93164
525.50	0.93950
525.75	0.94372
526.00	0.94800
526.25	0.95186
526.50	0.95986
526.75	0.96420
527.00	0.96724
527.25	0.97368
527.50	0.97882
527.75	0.98430
528.00	0.98419
528.25	0.98591
528.50	0.99420
528.75	0.99487
529.00	0.99949
529.25	0.99920
529.50	0.99956
529.75	1.0000
530.00	0.99953
530.25	0.99848
530.50	0.99913
530.75	0.99566
531.00	0.99601
531.25	0.99392
531.50	0.99327
531.75	0.99011
532.00	0.98656
532.25	0.98361
532.50	0.97911
532.75	0.97671
533.00	0.97041
533.25	0.96437
533.50	0.95956
533.75	0.94812
534.00	0.94740
534.25	0.94280
534.50	0.93684
534.75	0.92667
535.00	0.91961
535.25	0.90985
535.50	0.90122
535.75	0.89273
536.00	0.88002
536.25	0.87115
536.50	0.85931
536.75	0.84892
537.00	0.83884
537.25	0.82572
537.50	0.81370
537.75	0.80056
538.00	0.78959
538.25	0.77539
538.50	0.76529
538.75	0.75153
539.00	0.73615
539.25	0.72288
539.50	0.70678
539.75	0.69491
540.00	0.68161
540.25	0.66714
540.50	0.65361
540.75	0.63827
541.00	0.62498
541.25	0.60966
541.50	0.59762
541.75	0.58123
542.00	0.56926
542.25	0.55590
542.50	0.54242
542.75	0.52855
543.00	0.51551
543.25	0.50258
543.50	0.48738
543.75	0.47719
544.00	0.46325
544.25	0.45135
544.50	0.43947
544.75	0.42445
545.00	0.41323
545.25	0.40273
545.50	0.39231
545.75	0.37845
546.00	0.36924
546.25	0.35708
546.50	0.34769
546.75	0.33853
547.00	0.32512
547.25	0.31575
547.50	0.30647
547.75	0.29751
548.00	0.28778
548.25	0.27734
548.50	0.26938
548.75	0.26044
549.00	0.25298
549.25	0.24254
549.50	0.23432
549.75	0.22671
550.00	0.21781
550.25	0.21096
550.50	0.20227
550.75	0.19792
551.00	0.19101
551.25	0.18446
551.50	0.17773
551.75	0.16883
552.00	0.16491
552.25	0.15752
552.50	0.15263
552.75	0.14617
553.00	0.14090
553.25	0.13643
553.50	0.13111
553.75	0.12763
554.00	0.12244
554.25	0.11819
554.50	0.11377
554.75	0.10779
555.00	0.10374
555.25	0.10017
555.50	0.095315
555.75	0.090159
556.00	0.087208
556.25	0.082181
556.50	0.079888
556.75	0.076761
557.00	0.074529
557.25	0.069489
557.50	0.066449
557.75	0.065187
558.00	0.064007
558.25	0.060934
558.50	0.058390
558.75	0.056769
559.00	0.054767
559.25	0.049727
559.50	0.050629
559.75	0.047318
560.00	0.046247
560.25	0.043859
560.50	0.041220
560.75	0.042597
561.00	0.039368
561.25	0.038418
561.50	0.037672
561.75	0.035189
562.00	0.033384
562.25	0.032930
562.50	0.030813
562.75	0.028920
563.00	0.029327
563.25	0.027428
563.50	0.027251
563.75	0.024246
564.00	0.023344
564.25	0.024422
564.50	0.023059
564.75	0.022964
565.00	0.019925
565.25	0.019748
565.50	0.018466
565.75	0.017903
566.00	0.017360
566.25	0.016146
566.50	0.015956
566.75	0.014898
567.00	0.016913
567.25	0.013765
567.50	0.013493
567.75	0.013175
568.00	0.011431
568.25	0.014009
568.50	0.010420
568.75	0.012367
569.00	0.010257
569.25	0.0093144
569.50	0.0095044
569.75	0.0083511
570.00	0.0079712
570.25	0.0091788
570.50	0.0066619
570.75	0.0083172
571.00	0.0087310
571.25	0.0071029
571.50	0.0062006
571.75	0.0059699
572.00	0.0066890
572.25	0.0061192
572.50	0.0042807
572.75	0.0058478
573.00	0.0037448
573.25	0.0050066
573.50	0.0045453
573.75	0.0053458
574.00	0.0041586
574.25	0.0049184
574.50	0.0045996
574.75	0.0044300
575.00	0.0045724
575.25	0.0039212
575.50	0.0038058
575.75	0.0025983
576.00	0.0034734
576.25	0.0023269
576.50	0.0035345
576.75	0.0017299
577.00	0.0029443
577.25	0.0033106
577.50	0.0031342
577.75	0.0035277
578.00	0.0027679
578.25	0.0013772
578.50	0.0015807
578.75	0.0027475
579.00	0.0022184
579.25	0.0029850
579.50	0.0040161
579.75	0.0034870
580.00	0.0013636
580.25	0.0023608
580.50	0.0021302
580.75	0.0014314
581.00	-0.0013772
581.25	0.00047488
581.50	1.3568e-05
581.75	0.0015875
582.00	0.0024287
582.25	0.0012822
582.50	0.00092262
582.75	0.0023337
583.00	0.0027068
583.25	0.00084800
583.50	0.0014111
583.75	0.0015942
584.00	0.0013093
584.25	0.0020216
584.50	-0.0013297
584.75	-0.00029850
585.00	-0.00012211
585.25	0.00090227
585.50	0.0021234
585.75	0.00074624
586.00	0.0019538
586.25	0.0016214
586.50	0.0015400
586.75	-0.00046131
587.00	0.00052915
587.25	0.00065805
587.50	0.0016485
587.75	0.00065805
588.00	0.00014925
588.25	0.0016214
588.50	-0.00041382
588.75	0.00064448
589.00	-0.00048845
589.25	0.00023066
589.50	0.00069875
589.75	-0.00026458
590.00	0.00031885
590.25	-0.0013161
590.50	0.00061056
590.75	0.0015671
591.00	-2.0352e-05
591.25	0.0012347
591.50	-0.00097011
591.75	0.0017164
592.00	0.00021709
592.25	0.0010312
592.50	0.0016621
592.75	0.00033242
593.00	0.0011397
593.25	0.00069197
593.50	0.00021709
593.75	6.1056e-05
594.00	0.0014721
594.25	0.00054272
594.50	-0.0012686
594.75	0.0010787
595.00	0.00015603
595.25	0.0013975
595.50	-0.00099725
595.75	-0.00048845
596.00	-0.0011465
596.25	0.00064448
596.50	-0.00040026
596.75	-0.00038669
597.00	0.00078016
597.25	-0.0012822
597.50	0.00023066
597.75	-0.00016960
598.00	-0.00083443
598.25	0.0012957
598.50	-0.00062413
598.75	0.0012822
599.00	-0.0017638
599.25	-0.00068518
599.50	0.0012279
599.75	0.0010787
600.00	4.0704e-05
600.25	-0.00062413
600.50	0.0014993
600.75	0.00020352
601.00	-0.00053594
601.25	-0.0014043
601.50	-0.00036634
601.75	0.0011397
602.00	0.00097011
602.25	0.0011329
602.50	0.00034598
602.75	0.00048845
603.00	0.0010922
603.25	-0.00042739
603.50	-0.00023744
603.75	-0.00084122
604.00	0.00056307
604.25	-0.00059699
604.50	0.00048845
604.75	-0.00061734
605.00	0.00045453
605.25	0.00084800
605.50	-0.00015603
605.75	0.00026458
606.00	-0.00014246
606.25	0.0012211
606.50	-0.00016960
606.75	-0.00067840
607.00	-5.4272e-05
607.25	0.00037990
607.50	0.0019199
607.75	-0.00078016
608.00	0.00096333
608.25	0.0033784
608.50	0.0012890
608.75	0.00079373
609.00	-0.00040704
609.25	-0.00065805
609.50	-0.00080051
609.75	0.00060378
610.00	-0.00023744
610.25	0.00059021
610.50	-6.7840e-06
610.75	0.0024762
611.00	-0.00063770
611.25	-0.00063770
611.50	-0.00050880
611.75	0.00090227
612.00	0.00023744
612.25	0.00052237
612.50	-0.0019402
612.75	0.0011058
613.00	0.00035955
613.25	0.0010651
613.50	-0.00012211
613.75	0.0015264
614.00	0.0023201
614.25	0.0014111
614.50	-0.00026458
614.75	-0.00046810
615.00	0.0019606
615.25	-2.0352e-05
615.50	8.8192e-05
615.75	0.00010854
616.00	-0.00065126
616.25	0.00024422
616.50	0.00092941
616.75	0.0019063
617.00	-0.00018317
617.25	0.00041382
617.50	0.00082086
617.75	-0.00016960
618.00	-0.00061056
618.25	0.00054950
618.50	0.0013025
618.75	0.0018792
619.00	0.00069197
619.25	0.00014246
619.50	0.0012211
619.75	-0.00013568
620.00	-0.0016689
620.25	0.0016010
620.50	0.00035277
620.75	0.0016892
621.00	-0.00010854
621.25	-0.00056307
621.50	0.00069875
621.75	-0.00088192
622.00	0.0015671
622.25	0.00075981
622.50	0.00087514
622.75	0.0012550
623.00	0.0022726
623.25	-7.4624e-05
623.50	-0.0015060
623.75	0.0015060
624.00	0.00035955
624.25	0.0011465
624.50	-6.7840e-05
624.75	0.0021166
625.00	0.0016146
625.25	0.0017910
625.50	0.00012211
625.75	-0.00027136
626.00	0.0010040
626.25	0.00019674
626.50	-0.0014721
626.75	0.0017231
627.00	0.0016621
627.25	0.0017435
627.50	0.00082765
627.75	0.0017231
628.00	-0.00031206
628.25	0.00037312
628.50	0.0018792
628.75	0.00027136
629.00	0.0014382
629.25	-0.0011397
629.50	0.00078694
629.75	-0.0011194
630.00	0.0027475
630.25	0.0016553
630.50	0.0011261
630.75	0.0021844
631.00	0.00022387
631.25	0.0016485
631.50	0.0011940
631.75	0.00014246
632.00	0.00063770
632.25	-0.00063091
632.50	0.0024965
632.75	-0.0012957
633.00	0.0015332
633.25	0.00017638
633.50	0.00086835
633.75	-0.00068518
634.00	-0.00013568
634.25	0.0012550
634.50	0.0010176
634.75	0.0019199
635.00	-0.00028493
635.25	0.0011465
635.50	-6.1056e-05
635.75	0.00085478
636.00	0.0014450
636.25	-6.1056e-05
636.50	0.00059699
636.75	0.0014111
637.00	-0.00052915
637.25	0.00047488
637.50	0.0017503
637.75	0.00019674
638.00	0.0016689
638.25	0.0011194
638.50	0.00023744
638.75	-0.00022387
639.00	0.0010447
639.25	-0.00061056
639.50	4.0704e-05
639.75	0.00078016
640.00	0.0014857
640.25	-0.00056307
640.50	0.00092262
640.75	-0.00062413
641.00	0.00096333
641.25	0.0014925
641.50	-0.00029850
641.75	0.00027136
642.00	0.00044096
642.25	0.00059699
642.50	-0.00090906
642.75	0.0017096
643.00	0.00082086
643.25	0.00021030
643.50	0.0016214
643.75	-0.00048166
644.00	0.00054950
644.25	0.00023066
644.50	0.00022387
644.75	0.00031206
645.00	0.00064448
645.25	0.00040704
645.50	0.00090227
645.75	0.0015468
646.00	8.1408e-05
646.25	-0.00028493
646.50	0.00082765
646.75	0.00016960
647.00	0.00034598
647.25	0.0017164
647.50	0.0013975
647.75	0.00098368
648.00	0.00079373
648.25	0.00040704
648.50	-0.00021030
648.75	0.00033920
649.00	0.00037990
649.25	0.00047488
649.50	-0.00024422
649.75	-0.00042739
650.00	0.00056986
650.25	0.0024151
650.50	0.00088192
650.75	0.00072589
651.00	0.00038669
651.25	0.00090906
651.50	0.0014857
651.75	-0.0011533
652.00	0.00014925
652.25	0.0018724
652.50	0.00064448
652.75	0.00067840
653.00	-0.00060378
653.25	0.0021030
653.50	0.0010244
653.75	0.00061734
654.00	-0.0012008
654.25	-7.4624e-05
654.50	0.0013500
654.75	-0.0010108
655.00	0.00012211
655.25	0.00013568
655.50	0.0020759
655.75	0.0011465
656.00	0.0011940
656.25	0.00075981
656.50	-0.00080051
656.75	0.0011804
657.00	-8.1408e-05
657.25	-6.7840e-05
657.50	0.00012890
657.75	6.7840e-06
658.00	0.0024151
658.25	0.00040704
658.50	0.0011261
658.75	0.00094976
659.00	6.7840e-05
659.25	0.0011533
659.50	-0.00056986
659.75	0.00025779
660.00	0.00027136
660.25	0.0019063
660.50	-0.00074624
660.75	0.00048166
661.00	0.00051558
661.25	0.0026593
661.50	0.0019131
661.75	-8.8192e-05
662.00	0.00042739
662.25	0.00070554
662.50	0.0027272
662.75	0.00087514
663.00	-9.4976e-05
663.25	0.00094976
663.50	0.0018995
663.75	0.0011329
664.00	-0.00061056
664.25	-0.00033242
664.50	0.0014179
664.75	-0.00010176
665.00	-0.00056307
665.25	-0.0010854
665.50	0.00069197
665.75	7.4624e-05
666.00	0.0012279
666.25	-0.00076659
666.50	0.0022184
666.75	0.00076659
667.00	0.00069875
667.25	-0.00065126
667.50	0.00035277
667.75	0.0019674
668.00	0.00055629
668.25	0.00075302
668.50	0.0012279
668.75	0.0012618
669.00	0.0020759
669.25	0.00042061
669.50	-0.00033920
669.75	-0.0010108
670.00	0.0014450
670.25	0.0015942
670.50	-0.0013432
670.75	0.00064448
671.00	-0.00014925
671.25	0.0018656
671.50	0.0016824
671.75	-0.00084800
672.00	-0.00094298
672.25	0.0013432
672.50	0.0013839
672.75	-0.0010447
673.00	-0.00031885
673.25	0.0020827
673.50	0.0019538
673.75	0.00027814
674.00	-3.3920e-05
674.25	0.0015060
674.50	0.0011601
674.75	0.00061734
675.00	0.00058342
675.25	-2.0352e-05
675.50	0.0012347
675.75	0.00048166
676.00	0.0014789
676.25	-0.00095654
676.50	0.0010380
676.75	0.0018724
677.00	0.0020420
677.25	0.00085478
677.50	0.0010719
677.75	0.00047488
678.00	-0.00047488
678.25	0.00065126
678.50	0.00082086
678.75	0.0022862
679.00	0.0010380
679.25	0.00056307
679.50	0.00027814
679.75	0.00056986
680.00	0.0015264
680.25	-4.7488e-05
680.50	-4.7488e-05
680.75	-0.00023066
681.00	0.00084800
681.25	0.0016214
681.50	0.00012211
681.75	0.00026458
682.00	-0.00021709
682.25	0.0014382
682.50	-0.00079373
682.75	0.00029850
683.00	-0.00015603
683.25	0.0013975
683.50	0.00090227
683.75	-0.00031885
684.00	0.00067840
684.25	0.00023744
684.50	0.0015264
684.75	-0.00029850
685.00	0.00043418
685.25	0.00071232
685.50	0.00094298
685.75	0.00067840
686.00	0.00047488
686.25	0.0013568
686.50	0.0014993
686.75	0.0021030
687.00	0.0018588
687.25	2.0352e-05
687.50	0.00061734
687.75	0.00058342
688.00	8.8192e-05
688.25	-5.6897e-06
688.50	2.7136e-05
688.75	0.0011194
689.00	-6.1056e-05
689.25	0.0021844
689.50	0.00033242
689.75	0.00038669
690.00	0.0010312
690.25	-6.7840e-06
690.50	0.00048166
690.75	0.00012211
691.00	0.0012686
691.25	0.00075302
691.50	0.00082765
691.75	0.0020420
692.00	0.00024422
692.25	0.0021709
692.50	0.00099046
692.75	0.0013704
693.00	0.0014246
693.25	-0.00027136
693.50	0.00010176
693.75	2.0352e-05
694.00	0.00090227
694.25	0.00051558
694.50	0.0011465
694.75	0.0013975
695.00	0.00060378
695.25	0.0014518
695.50	0.00072589
695.75	0.0025304
696.00	0.00050880
696.25	-8.8192e-05
696.50	0.0010447
696.75	0.0014450
697.00	0.0023405
697.25	0.0019199
697.50	0.00059699
697.75	0.00048845
698.00	0.00095654
698.25	0.00058342
698.50	-0.00042739
698.75	-0.00037312
699.00	0.00046131
699.25	0.0010244
699.50	0.00058342
699.75	0.0015196
700.00	2.7136e-05
